## File LOS/SB2_B2004a_1.7z_Mags_500.bpz  Fri Aug 12 23:36:32 2016
##
##Parameters used to run BPZ:
##
##AB_DIR=/home/lidenscheng/bpz-1.99.3//AB/
##ADD_CONTINUOUS_PROB=None
##ADD_SPEC_PROB=None
##CHECK=LOS/SB2_B2004a_1.7z_Mags_500.flux_comparison
##COLOR=no
##COLUMNS=losNoErrors.columns
##CONVOLVE_P=yes
##DELTA_M_0=0.0
##DZ=0.01
##EXCLUDE=none
##FC=None
##FILTER_DIR=/home/lidenscheng/MK_DirectSim/filters/
##GET_Z=yes
##INPUT=LOS/SB2_B2004a_1.7z_Mags_500.txt
##INTERACTIVE=yes
##INTERP=0
##MADAU=no
##MAG=yes
##MEAN_IGM=yes
##MERGE_PEAKS=no
##MIN_MAGERR=0.001
##MIN_RMS=0.05
##NEW_AB=no
##NMAX=None
##NTYPES=None
##N_PEAKS=1
##ODDS=0.95
##ONLY_TYPE=no
##OUTPUT=LOS/SB2_B2004a_1.7z_Mags_500.bpz
##PHOTO_ERRORS=no
##PLOTS=no
##PRIOR=none
##PROBS=no
##PROBS2=no
##PROBS_LITE=LOS/SB2_B2004a_1.7z_Mags_500.probs
##P_MIN=0.01
##SED_DIR=/home/lidenscheng/MK_DirectSim/SEDs/
##SPECTRA=SB2.list
##VERBOSE=yes
##ZC=None
##ZMAX=10.0
##ZMIN=0.01
##ZP_OFFSETS=0.0
##Z_THR=0
##
##Column information
##
# 1 ID
# 2 Z_B
# 3 Z_B_MIN
# 4 Z_B_MAX
# 5 T_B
# 6 ODDS    
# 7 Z_ML
# 8 T_ML
# 9 CHI-SQUARED
# 10 M_0
##
    1 1.700 1.435  1.965 1.000 1.00000 1.700 1.000      4.098  23.000
    2 1.710 1.444  1.976 1.000 1.00000 1.710 1.000      9.433  23.000
    3 1.710 1.444  1.976 1.000 1.00000 1.710 1.000      8.446  23.000
    4 1.700 1.435  1.965 1.000 1.00000 1.700 1.000      3.923  23.000
    5 1.700 1.435  1.965 1.000 1.00000 1.700 1.000      4.576  23.000
    6 1.700 1.435  1.965 1.000 1.00000 1.700 1.000      4.149  23.000
    7 1.700 1.435  1.965 1.000 1.00000 1.700 1.000      4.098  23.000
    8 1.710 1.444  1.976 1.000 1.00000 1.710 1.000     18.622  23.000
    9 1.700 1.435  1.965 1.000 1.00000 1.700 1.000      4.458  23.000
   10 1.700 1.435  1.965 1.000 1.00000 1.700 1.000      4.132  23.000
   11 1.700 1.435  1.965 1.000 1.00000 1.700 1.000      3.985  23.000
   12 1.700 1.435  1.965 1.000 1.00000 1.700 1.000      4.576  23.000
   13 1.700 1.435  1.965 1.000 1.00000 1.700 1.000      4.082  23.000
   14 1.700 1.435  1.965 1.000 1.00000 1.700 1.000      4.149  23.000
   15 1.700 1.435  1.965 1.000 1.00000 1.700 1.000      4.132  23.000
   16 1.700 1.435  1.965 1.000 1.00000 1.700 1.000      4.098  23.000
   17 1.700 1.435  1.965 1.000 1.00000 1.700 1.000      3.953  23.000
   18 1.700 1.435  1.965 1.000 1.00000 1.700 1.000      4.115  23.000
   19 1.700 1.435  1.965 1.000 1.00000 1.700 1.000      5.073  23.000
   20 1.700 1.435  1.965 1.000 1.00000 1.700 1.000      4.201  23.000
   21 1.700 1.435  1.965 1.000 1.00000 1.700 1.000      5.640  23.000
   22 1.700 1.435  1.965 1.000 1.00000 1.700 1.000      5.027  23.000
   23 1.700 1.435  1.965 1.000 1.00000 1.700 1.000      5.050  23.000
   24 1.700 1.435  1.965 1.000 1.00000 1.700 1.000      3.877  23.000
   25 1.700 1.435  1.965 1.000 1.00000 1.700 1.000      3.938  23.000
   26 1.700 1.435  1.965 1.000 1.00000 1.700 1.000      3.953  23.000
   27 1.700 1.435  1.965 1.000 1.00000 1.700 1.000      4.401  23.000
   28 1.700 1.435  1.965 1.000 1.00000 1.700 1.000      6.729  23.000
   29 1.700 1.435  1.965 1.000 1.00000 1.700 1.000      4.401  23.000
   30 1.700 1.435  1.965 1.000 1.00000 1.700 1.000      6.365  23.000
   31 1.700 1.435  1.965 1.000 1.00000 1.700 1.000      5.050  23.000
   32 1.700 1.435  1.965 1.000 1.00000 1.700 1.000      6.306  23.000
   33 1.700 1.435  1.965 1.000 1.00000 1.700 1.000      4.982  23.000
   34 1.700 1.435  1.965 1.000 1.00000 1.700 1.000      5.167  23.000
   35 1.700 1.435  1.965 1.000 1.00000 1.700 1.000      4.308  23.000
   36 1.700 1.435  1.965 1.000 1.00000 1.700 1.000      5.511  23.000
   37 1.700 1.435  1.965 1.000 1.00000 1.700 1.000      4.326  23.000
   38 1.700 1.435  1.965 1.000 1.00000 1.700 1.000      4.149  23.000
   39 1.700 1.435  1.965 1.000 1.00000 1.700 1.000      4.236  23.000
   40 1.700 1.435  1.965 1.000 1.00000 1.700 1.000      6.103  23.000
   41 1.700 1.435  1.965 1.000 1.00000 1.700 1.000      7.246  23.000
   42 1.710 1.444  1.976 1.000 1.00000 1.710 1.000     14.075  23.000
   43 1.700 1.435  1.965 1.000 1.00000 1.700 1.000      4.382  23.000
   44 1.700 1.435  1.965 1.000 1.00000 1.700 1.000      4.576  23.000
   45 1.700 1.435  1.965 1.000 1.00000 1.700 1.000      3.923  23.000
   46 1.700 1.435  1.965 1.000 1.00000 1.700 1.000      4.272  23.000
   47 1.700 1.435  1.965 1.000 1.00000 1.700 1.000      4.637  23.000
   48 1.700 1.435  1.965 1.000 1.00000 1.700 1.000      4.132  23.000
   49 1.700 1.435  1.965 1.000 1.00000 1.700 1.000      3.985  23.000
   50 1.700 1.435  1.965 1.000 1.00000 1.700 1.000      3.953  23.000
   51 1.700 1.435  1.965 1.000 1.00000 1.700 1.000      5.238  23.000
   52 1.710 1.444  1.976 1.000 1.00000 1.710 1.000     16.467  23.000
   53 1.710 1.444  1.976 1.000 1.00000 1.710 1.000     18.006  23.000
   54 1.700 1.435  1.965 1.000 1.00000 1.700 1.000      4.149  23.000
   55 1.700 1.435  1.965 1.000 1.00000 1.700 1.000      4.326  23.000
   56 1.700 1.435  1.965 1.000 1.00000 1.700 1.000      6.047  23.000
   57 1.700 1.435  1.965 1.000 1.00000 1.700 1.000      4.477  23.000
   58 1.700 1.435  1.965 1.000 1.00000 1.700 1.000      4.870  23.000
   59 1.700 1.435  1.965 1.000 1.00000 1.700 1.000      4.617  23.000
   60 1.700 1.435  1.965 1.000 1.00000 1.700 1.000      4.065  23.000
   61 1.710 1.444  1.976 1.000 1.00000 1.710 1.000     12.455  23.000
   62 1.700 1.435  1.965 1.000 1.00000 1.700 1.000      4.115  23.000
   63 1.700 1.435  1.965 1.000 1.00000 1.700 1.000      6.189  23.000
   64 1.700 1.435  1.965 1.000 1.00000 1.700 1.000      7.414  23.000
   65 1.710 1.444  1.976 1.000 1.00000 1.710 1.000     12.930  23.000
   66 1.700 1.435  1.965 1.000 1.00000 1.700 1.000      4.477  23.000
   67 1.710 1.444  1.976 1.000 1.00000 1.710 1.000     10.444  23.000
   68 1.700 1.435  1.965 1.000 1.00000 1.700 1.000      3.907  23.000
   69 1.700 1.435  1.965 1.000 1.00000 1.700 1.000      4.678  23.000
   70 1.700 1.435  1.965 1.000 1.00000 1.700 1.000      3.923  23.000
   71 1.700 1.435  1.965 1.000 1.00000 1.700 1.000      4.596  23.000
   72 1.700 1.435  1.965 1.000 1.00000 1.700 1.000      4.915  23.000
   73 1.700 1.435  1.965 1.000 1.00000 1.700 1.000      4.720  23.000
   74 1.700 1.435  1.965 1.000 1.00000 1.700 1.000      4.678  23.000
   75 1.700 1.435  1.965 1.000 1.00000 1.700 1.000      4.166  23.000
   76 1.700 1.435  1.965 1.000 1.00000 1.700 1.000      5.588  23.000
   77 1.700 1.435  1.965 1.000 1.00000 1.700 1.000      4.272  23.000
   78 1.700 1.435  1.965 1.000 1.00000 1.700 1.000      3.923  23.000
   79 1.710 1.444  1.976 1.000 1.00000 1.710 1.000     12.176  23.000
   80 1.700 1.435  1.965 1.000 1.00000 1.700 1.000      4.699  23.000
   81 1.700 1.435  1.965 1.000 1.00000 1.700 1.000      5.167  23.000
   82 1.700 1.435  1.965 1.000 1.00000 1.700 1.000      4.254  23.000
   83 1.700 1.435  1.965 1.000 1.00000 1.700 1.000      4.049  23.000
   84 1.710 1.444  1.976 1.000 1.00000 1.710 1.000     10.566  23.000
   85 1.700 1.435  1.965 1.000 1.00000 1.700 1.000      5.311  23.000
   86 1.700 1.435  1.965 1.000 1.00000 1.700 1.000      4.382  23.000
   87 1.700 1.435  1.965 1.000 1.00000 1.700 1.000      4.049  23.000
   88 1.700 1.435  1.965 1.000 1.00000 1.700 1.000      3.907  23.000
   89 1.700 1.435  1.965 1.000 1.00000 1.700 1.000      4.382  23.000
   90 1.700 1.435  1.965 1.000 1.00000 1.700 1.000      4.536  23.000
   91 1.700 1.435  1.965 1.000 1.00000 1.700 1.000      4.183  23.000
   92 1.710 1.444  1.976 1.000 1.00000 1.710 1.000      7.535  23.000
   93 1.700 1.435  1.965 1.000 1.00000 1.700 1.000      3.863  23.000
   94 1.700 1.435  1.965 1.000 1.00000 1.700 1.000      4.517  23.000
   95 1.700 1.435  1.965 1.000 1.00000 1.700 1.000      4.439  23.000
   96 1.710 1.444  1.976 1.000 1.00000 1.710 1.000     10.444  23.000
   97 1.700 1.435  1.965 1.000 1.00000 1.700 1.000      4.183  23.000
   98 1.700 1.435  1.965 1.000 1.00000 1.700 1.000      4.115  23.000
   99 1.700 1.435  1.965 1.000 1.00000 1.700 1.000      4.201  23.000
  100 1.710 1.444  1.976 1.000 1.00000 1.710 1.000      7.684  23.000
  101 1.700 1.435  1.965 1.000 1.00000 1.700 1.000      4.183  23.000
  102 1.700 1.435  1.965 1.000 1.00000 1.700 1.000      4.098  23.000
  103 1.700 1.435  1.965 1.000 1.00000 1.700 1.000      5.460  23.000
  104 1.700 1.435  1.965 1.000 1.00000 1.700 1.000      6.335  23.000
  105 1.700 1.435  1.965 1.000 1.00000 1.700 1.000      4.272  23.000
  106 1.710 1.444  1.976 1.000 1.00000 1.710 1.000      8.649  23.000
  107 1.700 1.435  1.965 1.000 1.00000 1.700 1.000      4.065  23.000
  108 1.700 1.435  1.965 1.000 1.00000 1.700 1.000      4.805  23.000
  109 1.700 1.435  1.965 1.000 1.00000 1.700 1.000      3.892  23.000
  110 1.710 1.444  1.976 1.000 1.00000 1.710 1.000     12.315  23.000
  111 1.710 1.444  1.976 1.000 1.00000 1.710 1.000     20.556  23.000
  112 1.700 1.435  1.965 1.000 1.00000 1.700 1.000      4.254  23.000
  113 1.700 1.435  1.965 1.000 1.00000 1.700 1.000      4.166  23.000
  114 1.700 1.435  1.965 1.000 1.00000 1.700 1.000      5.143  23.000
  115 1.700 1.435  1.965 1.000 1.00000 1.700 1.000      6.667  23.000
  116 1.700 1.435  1.965 1.000 1.00000 1.700 1.000      4.308  23.000
  117 1.710 1.444  1.976 1.000 1.00000 1.710 1.000      8.856  23.000
  118 1.700 1.435  1.965 1.000 1.00000 1.700 1.000      4.617  23.000
  119 1.700 1.435  1.965 1.000 1.00000 1.700 1.000      4.536  23.000
  120 1.700 1.435  1.965 1.000 1.00000 1.700 1.000      4.959  23.000
  121 1.700 1.435  1.965 1.000 1.00000 1.700 1.000      4.982  23.000
  122 1.700 1.435  1.965 1.000 1.00000 1.700 1.000      4.762  23.000
  123 1.700 1.435  1.965 1.000 1.00000 1.700 1.000      4.098  23.000
  124 1.700 1.435  1.965 1.000 1.00000 1.700 1.000      4.762  23.000
  125 1.710 1.444  1.976 1.000 1.00000 1.710 1.000     10.484  23.000
  126 1.700 1.435  1.965 1.000 1.00000 1.700 1.000      4.033  23.000
  127 1.700 1.435  1.965 1.000 1.00000 1.700 1.000      6.394  23.000
  128 1.700 1.435  1.965 1.000 1.00000 1.700 1.000      5.096  23.000
  129 1.700 1.435  1.965 1.000 1.00000 1.700 1.000      4.308  23.000
  130 1.700 1.435  1.965 1.000 1.00000 1.700 1.000      5.935  23.000
  131 1.700 1.435  1.965 1.000 1.00000 1.700 1.000      4.363  23.000
  132 1.700 1.435  1.965 1.000 1.00000 1.700 1.000      4.678  23.000
  133 1.700 1.435  1.965 1.000 1.00000 1.700 1.000      4.477  23.000
  134 1.700 1.435  1.965 1.000 1.00000 1.700 1.000      4.065  23.000
  135 1.700 1.435  1.965 1.000 1.00000 1.700 1.000      4.254  23.000
  136 1.700 1.435  1.965 1.000 1.00000 1.700 1.000      5.027  23.000
  137 1.700 1.435  1.965 1.000 1.00000 1.700 1.000      3.953  23.000
  138 1.700 1.435  1.965 1.000 1.00000 1.700 1.000      7.081  23.000
  139 1.700 1.435  1.965 1.000 1.00000 1.700 1.000      3.953  23.000
  140 1.700 1.435  1.965 1.000 1.00000 1.700 1.000      4.033  23.000
  141 1.700 1.435  1.965 1.000 1.00000 1.700 1.000      5.536  23.000
  142 1.700 1.435  1.965 1.000 1.00000 1.700 1.000      4.517  23.000
  143 1.700 1.435  1.965 1.000 1.00000 1.700 1.000      6.514  23.000
  144 1.700 1.435  1.965 1.000 1.00000 1.700 1.000      4.784  23.000
  145 1.710 1.444  1.976 1.000 1.00000 1.710 1.000      7.868  23.000
  146 1.700 1.435  1.965 1.000 1.00000 1.700 1.000      4.033  23.000
  147 1.700 1.435  1.965 1.000 1.00000 1.700 1.000      5.719  23.000
  148 1.700 1.435  1.965 1.000 1.00000 1.700 1.000      4.762  23.000
  149 1.700 1.435  1.965 1.000 1.00000 1.700 1.000      4.098  23.000
  150 1.700 1.435  1.965 1.000 1.00000 1.700 1.000      4.420  23.000
  151 1.710 1.444  1.976 1.000 1.00000 1.710 1.000      9.849  23.000
  152 1.710 1.444  1.976 1.000 1.00000 1.710 1.000     14.075  23.000
  153 1.700 1.435  1.965 1.000 1.00000 1.700 1.000      7.179  23.000
  154 1.700 1.435  1.965 1.000 1.00000 1.700 1.000      5.772  23.000
  155 1.710 1.444  1.976 1.000 1.00000 1.710 1.000     12.930  23.000
  156 1.700 1.435  1.965 1.000 1.00000 1.700 1.000      4.065  23.000
  157 1.710 1.444  1.976 1.000 1.00000 1.710 1.000     12.786  23.000
  158 1.700 1.435  1.965 1.000 1.00000 1.700 1.000      3.923  23.000
  159 1.700 1.435  1.965 1.000 1.00000 1.700 1.000      4.308  23.000
  160 1.710 1.444  1.976 1.000 1.00000 1.710 1.000      9.069  23.000
  161 1.700 1.435  1.965 1.000 1.00000 1.700 1.000      5.238  23.000
  162 1.700 1.435  1.965 1.000 1.00000 1.700 1.000      6.047  23.000
  163 1.710 1.444  1.976 1.000 1.00000 1.710 1.000      7.594  23.000
  164 1.700 1.435  1.965 1.000 1.00000 1.700 1.000      4.149  23.000
  165 1.700 1.435  1.965 1.000 1.00000 1.700 1.000      3.892  23.000
  166 1.700 1.435  1.965 1.000 1.00000 1.700 1.000      6.047  23.000
  167 1.700 1.435  1.965 1.000 1.00000 1.700 1.000      4.497  23.000
  168 1.700 1.435  1.965 1.000 1.00000 1.700 1.000      4.892  23.000
  169 1.700 1.435  1.965 1.000 1.00000 1.700 1.000      4.762  23.000
  170 1.700 1.435  1.965 1.000 1.00000 1.700 1.000      4.149  23.000
  171 1.700 1.435  1.965 1.000 1.00000 1.700 1.000      4.363  23.000
  172 1.700 1.435  1.965 1.000 1.00000 1.700 1.000      4.762  23.000
  173 1.700 1.435  1.965 1.000 1.00000 1.700 1.000      5.311  23.000
  174 1.700 1.435  1.965 1.000 1.00000 1.700 1.000      4.345  23.000
  175 1.700 1.435  1.965 1.000 1.00000 1.700 1.000      3.863  23.000
  176 1.700 1.435  1.965 1.000 1.00000 1.700 1.000      5.991  23.000
  177 1.710 1.444  1.976 1.000 1.00000 1.710 1.000      9.069  23.000
  178 1.700 1.435  1.965 1.000 1.00000 1.700 1.000      4.082  23.000
  179 1.700 1.435  1.965 1.000 1.00000 1.700 1.000      5.027  23.000
  180 1.700 1.435  1.965 1.000 1.00000 1.700 1.000      3.938  23.000
  181 1.700 1.435  1.965 1.000 1.00000 1.700 1.000      4.201  23.000
  182 1.700 1.435  1.965 1.000 1.00000 1.700 1.000      6.729  23.000
  183 1.700 1.435  1.965 1.000 1.00000 1.700 1.000      4.082  23.000
  184 1.700 1.435  1.965 1.000 1.00000 1.700 1.000      4.596  23.000
  185 1.700 1.435  1.965 1.000 1.00000 1.700 1.000      4.536  23.000
  186 1.700 1.435  1.965 1.000 1.00000 1.700 1.000      4.784  23.000
  187 1.700 1.435  1.965 1.000 1.00000 1.700 1.000      3.892  23.000
  188 1.700 1.435  1.965 1.000 1.00000 1.700 1.000      4.065  23.000
  189 1.710 1.444  1.976 1.000 1.00000 1.710 1.000     13.820  23.000
  190 1.700 1.435  1.965 1.000 1.00000 1.700 1.000      4.959  23.000
  191 1.710 1.444  1.976 1.000 1.00000 1.710 1.000     10.814  23.000
  192 1.700 1.435  1.965 1.000 1.00000 1.700 1.000      4.201  23.000
  193 1.700 1.435  1.965 1.000 1.00000 1.700 1.000      4.345  23.000
  194 1.700 1.435  1.965 1.000 1.00000 1.700 1.000      3.969  23.000
  195 1.700 1.435  1.965 1.000 1.00000 1.700 1.000      3.985  23.000
  196 1.700 1.435  1.965 1.000 1.00000 1.700 1.000      4.149  23.000
  197 1.700 1.435  1.965 1.000 1.00000 1.700 1.000      4.254  23.000
  198 1.700 1.435  1.965 1.000 1.00000 1.700 1.000      5.004  23.000
  199 1.700 1.435  1.965 1.000 1.00000 1.700 1.000      4.033  23.000
  200 1.710 1.444  1.976 1.000 1.00000 1.710 1.000      8.997  23.000
  201 1.700 1.435  1.965 1.000 1.00000 1.700 1.000      6.575  23.000
  202 1.710 1.444  1.976 1.000 1.00000 1.710 1.000      8.380  23.000
  203 1.710 1.444  1.976 1.000 1.00000 1.710 1.000     15.238  23.000
  204 1.700 1.435  1.965 1.000 1.00000 1.710 1.000      7.447  23.000
  205 1.700 1.435  1.965 1.000 1.00000 1.700 1.000      4.065  23.000
  206 1.700 1.435  1.965 1.000 1.00000 1.700 1.000      4.497  23.000
  207 1.700 1.435  1.965 1.000 1.00000 1.700 1.000      4.115  23.000
  208 1.700 1.435  1.965 1.000 1.00000 1.700 1.000      3.938  23.000
  209 1.700 1.435  1.965 1.000 1.00000 1.700 1.000      4.290  23.000
  210 1.710 1.444  1.976 1.000 1.00000 1.710 1.000      7.837  23.000
  211 1.700 1.435  1.965 1.000 1.00000 1.700 1.000      4.001  23.000
  212 1.700 1.435  1.965 1.000 1.00000 1.700 1.000      4.049  23.000
  213 1.700 1.435  1.965 1.000 1.00000 1.700 1.000      4.149  23.000
  214 1.700 1.435  1.965 1.000 1.00000 1.700 1.000      5.335  23.000
  215 1.700 1.435  1.965 1.000 1.00000 1.700 1.000      3.907  23.000
  216 1.700 1.435  1.965 1.000 1.00000 1.700 1.000      5.120  23.000
  217 1.710 1.444  1.976 1.000 1.00000 1.710 1.000     11.326  23.000
  218 1.700 1.435  1.965 1.000 1.00000 1.700 1.000      4.363  23.000
  219 1.700 1.435  1.965 1.000 1.00000 1.700 1.000      4.033  23.000
  220 1.700 1.435  1.965 1.000 1.00000 1.700 1.000      4.536  23.000
  221 1.700 1.435  1.965 1.000 1.00000 1.700 1.000      4.345  23.000
  222 1.700 1.435  1.965 1.000 1.00000 1.700 1.000      4.033  23.000
  223 1.700 1.435  1.965 1.000 1.00000 1.700 1.000      4.033  23.000
  224 1.700 1.435  1.965 1.000 1.00000 1.700 1.000      4.345  23.000
  225 1.700 1.435  1.965 1.000 1.00000 1.700 1.000      3.938  23.000
  226 1.700 1.435  1.965 1.000 1.00000 1.700 1.000      4.254  23.000
  227 1.700 1.435  1.965 1.000 1.00000 1.700 1.000      5.666  23.000
  228 1.700 1.435  1.965 1.000 1.00000 1.700 1.000      4.183  23.000
  229 1.700 1.435  1.965 1.000 1.00000 1.700 1.000      4.132  23.000
  230 1.700 1.435  1.965 1.000 1.00000 1.700 1.000      4.326  23.000
  231 1.700 1.435  1.965 1.000 1.00000 1.700 1.000      4.762  23.000
  232 1.700 1.435  1.965 1.000 1.00000 1.700 1.000      4.149  23.000
  233 1.700 1.435  1.965 1.000 1.00000 1.700 1.000      5.096  23.000
  234 1.700 1.435  1.965 1.000 1.00000 1.700 1.000      4.363  23.000
  235 1.700 1.435  1.965 1.000 1.00000 1.700 1.000      4.937  23.000
  236 1.700 1.435  1.965 1.000 1.00000 1.700 1.000      6.729  23.000
  237 1.710 1.444  1.976 1.000 1.00000 1.710 1.000      9.811  23.000
  238 1.700 1.435  1.965 1.000 1.00000 1.700 1.000      3.985  23.000
  239 1.700 1.435  1.965 1.000 1.00000 1.700 1.000      4.115  23.000
  240 1.700 1.435  1.965 1.000 1.00000 1.700 1.000      6.276  23.000
  241 1.700 1.435  1.965 1.000 1.00000 1.700 1.000      4.001  23.000
  242 1.700 1.435  1.965 1.000 1.00000 1.700 1.000      4.183  23.000
  243 1.700 1.435  1.965 1.000 1.00000 1.700 1.000      6.606  23.000
  244 1.710 1.444  1.976 1.000 1.00000 1.710 1.000      9.470  23.000
  245 1.700 1.435  1.965 1.000 1.00000 1.700 1.000      4.345  23.000
  246 1.700 1.435  1.965 1.000 1.00000 1.700 1.000      4.363  23.000
  247 1.700 1.435  1.965 1.000 1.00000 1.700 1.000      4.420  23.000
  248 1.700 1.435  1.965 1.000 1.00000 1.700 1.000      4.183  23.000
  249 1.710 1.444  1.976 1.000 1.00000 1.710 1.000     13.419  23.000
  250 1.700 1.435  1.965 1.000 1.00000 1.700 1.000      3.907  23.000
  251 1.700 1.435  1.965 1.000 1.00000 1.700 1.000      4.982  23.000
  252 1.700 1.435  1.965 1.000 1.00000 1.700 1.000      4.326  23.000
  253 1.700 1.435  1.965 1.000 1.00000 1.700 1.000      4.149  23.000
  254 1.700 1.435  1.965 1.000 1.00000 1.700 1.000      4.326  23.000
  255 1.700 1.435  1.965 1.000 1.00000 1.700 1.000      4.033  23.000
  256 1.700 1.435  1.965 1.000 1.00000 1.700 1.000      4.308  23.000
  257 1.700 1.435  1.965 1.000 1.00000 1.700 1.000      4.345  23.000
  258 1.710 1.444  1.976 1.000 1.00000 1.710 1.000      8.997  23.000
  259 1.700 1.435  1.965 1.000 1.00000 1.700 1.000      3.969  23.000
  260 1.700 1.435  1.965 1.000 1.00000 1.700 1.000      4.477  23.000
  261 1.700 1.435  1.965 1.000 1.00000 1.700 1.000      5.004  23.000
  262 1.700 1.435  1.965 1.000 1.00000 1.700 1.000      4.001  23.000
  263 1.700 1.435  1.965 1.000 1.00000 1.700 1.000      4.517  23.000
  264 1.700 1.435  1.965 1.000 1.00000 1.700 1.000      3.953  23.000
  265 1.700 1.435  1.965 1.000 1.00000 1.700 1.000      4.720  23.000
  266 1.700 1.435  1.965 1.000 1.00000 1.700 1.000      4.959  23.000
  267 1.700 1.435  1.965 1.000 1.00000 1.700 1.000      7.081  23.000
  268 1.700 1.435  1.965 1.000 1.00000 1.700 1.000      5.050  23.000
  269 1.700 1.435  1.965 1.000 1.00000 1.700 1.000      4.272  23.000
  270 1.700 1.435  1.965 1.000 1.00000 1.700 1.000      3.985  23.000
