## File LOS/SB2_B2004a_1.9z_Mags_1800.bpz  Sat Aug 13 01:37:46 2016
##
##Parameters used to run BPZ:
##
##AB_DIR=/home/lidenscheng/bpz-1.99.3//AB/
##ADD_CONTINUOUS_PROB=None
##ADD_SPEC_PROB=None
##CHECK=LOS/SB2_B2004a_1.9z_Mags_1800.flux_comparison
##COLOR=no
##COLUMNS=losNoErrors.columns
##CONVOLVE_P=yes
##DELTA_M_0=0.0
##DZ=0.01
##EXCLUDE=none
##FC=None
##FILTER_DIR=/home/lidenscheng/MK_DirectSim/filters/
##GET_Z=yes
##INPUT=LOS/SB2_B2004a_1.9z_Mags_1800.txt
##INTERACTIVE=yes
##INTERP=0
##MADAU=no
##MAG=yes
##MEAN_IGM=yes
##MERGE_PEAKS=no
##MIN_MAGERR=0.001
##MIN_RMS=0.05
##NEW_AB=no
##NMAX=None
##NTYPES=None
##N_PEAKS=1
##ODDS=0.95
##ONLY_TYPE=no
##OUTPUT=LOS/SB2_B2004a_1.9z_Mags_1800.bpz
##PHOTO_ERRORS=no
##PLOTS=no
##PRIOR=none
##PROBS=no
##PROBS2=no
##PROBS_LITE=LOS/SB2_B2004a_1.9z_Mags_1800.probs
##P_MIN=0.01
##SED_DIR=/home/lidenscheng/MK_DirectSim/SEDs/
##SPECTRA=SB2.list
##VERBOSE=yes
##ZC=None
##ZMAX=10.0
##ZMIN=0.01
##ZP_OFFSETS=0.0
##Z_THR=0
##
##Column information
##
# 1 ID
# 2 Z_B
# 3 Z_B_MIN
# 4 Z_B_MAX
# 5 T_B
# 6 ODDS    
# 7 Z_ML
# 8 T_ML
# 9 CHI-SQUARED
# 10 M_0
##
    1 1.930 1.643  2.217 1.000 1.00000 1.930 1.000      2.868  23.000
    2 1.920 1.634  2.206 1.000 1.00000 1.920 1.000      0.901  23.000
    3 1.920 1.634  2.206 1.000 1.00000 1.920 1.000      0.393  23.000
    4 1.920 1.634  2.206 1.000 1.00000 1.920 1.000      0.716  23.000
    5 1.920 1.634  2.206 1.000 1.00000 1.920 1.000      0.647  23.000
    6 1.960 1.670  2.250 1.000 1.00000 1.960 1.000     31.262  23.000
    7 1.930 1.643  2.217 1.000 1.00000 1.930 1.000      4.478  23.000
    8 1.930 1.643  2.217 1.000 1.00000 1.930 1.000      3.039  23.000
    9 1.920 1.634  2.206 1.000 1.00000 1.920 1.000      0.530  23.000
   10 1.920 1.634  2.206 1.000 1.00000 1.920 1.000      0.317  23.000
   11 1.920 1.634  2.206 1.000 1.00000 1.920 1.000      0.604  23.000
   12 1.960 1.670  2.250 1.000 1.00000 1.960 1.000      8.444  23.000
   13 1.960 1.670  2.250 1.000 1.00000 1.960 1.000     10.475  23.000
   14 1.920 1.634  2.206 1.000 1.00000 1.920 1.000      1.300  23.000
   15 1.920 1.634  2.206 1.000 1.00000 1.920 1.000      2.047  23.000
   16 1.920 1.634  2.206 1.000 1.00000 1.920 1.000      0.305  23.000
   17 1.960 1.670  2.250 1.000 1.00000 1.960 1.000     51.150  23.000
   18 1.920 1.634  2.206 1.000 1.00000 1.920 1.000      0.325  23.000
   19 1.960 1.670  2.250 1.000 1.00000 1.960 1.000      7.950  23.000
   20 1.920 1.634  2.206 1.000 1.00000 1.920 1.000      0.325  23.000
   21 1.920 1.634  2.206 1.000 1.00000 1.920 1.000      1.175  23.000
   22 1.960 1.670  2.250 1.000 1.00000 1.960 1.000     12.511  23.000
   23 1.920 1.634  2.206 1.000 1.00000 1.920 1.000      0.308  23.000
   24 1.960 1.670  2.250 1.000 1.00000 1.960 1.000     17.035  23.000
   25 1.960 1.670  2.250 1.000 1.00000 1.960 1.000     14.911  23.000
   26 1.940 1.652  2.228 1.000 1.00000 1.930 1.000      7.352  23.000
   27 1.920 1.634  2.206 1.000 1.00000 1.920 1.000      0.442  23.000
   28 1.960 1.670  2.250 1.000 1.00000 1.960 1.000      7.506  23.000
   29 1.920 1.634  2.206 1.000 1.00000 1.920 1.000      0.480  23.000
   30 1.930 1.643  2.217 1.000 1.00000 1.930 1.000      2.797  23.000
   31 1.930 1.643  2.217 1.000 1.00000 1.930 1.000      6.537  23.000
   32 1.930 1.643  2.217 1.000 1.00000 1.930 1.000      3.089  23.000
   33 1.920 1.634  2.206 1.000 1.00000 1.920 1.000      2.112  23.000
   34 1.930 1.643  2.217 1.000 1.00000 1.930 1.000      3.216  23.000
   35 1.920 1.634  2.206 1.000 1.00000 1.920 1.000      0.729  23.000
   36 1.920 1.634  2.206 1.000 1.00000 1.920 1.000      0.965  23.000
   37 1.960 1.670  2.250 1.000 1.00000 1.960 1.000     18.635  23.000
   38 1.960 1.670  2.250 1.000 1.00000 1.960 1.000     18.197  23.000
   39 1.960 1.670  2.250 1.000 1.00000 1.960 1.000     12.970  23.000
   40 1.960 1.670  2.250 1.000 1.00000 1.960 1.000      8.126  23.000
   41 1.930 1.643  2.217 1.000 1.00000 1.930 1.000      3.758  23.000
   42 1.960 1.670  2.250 1.000 1.00000 1.960 1.000     17.035  23.000
   43 1.920 1.634  2.206 1.000 1.00000 1.920 1.000      0.487  23.000
   44 1.930 1.643  2.217 1.000 1.00000 1.930 1.000      2.374  23.000
   45 1.930 1.643  2.217 1.000 1.00000 1.930 1.000      2.750  23.000
   46 1.920 1.634  2.206 1.000 1.00000 1.920 1.000      0.562  23.000
   47 1.920 1.634  2.206 1.000 1.00000 1.920 1.000      0.522  23.000
   48 1.930 1.643  2.217 1.000 1.00000 1.930 1.000      6.264  23.000
   49 1.920 1.634  2.206 1.000 1.00000 1.920 1.000      0.695  23.000
   50 1.920 1.634  2.206 1.000 1.00000 1.920 1.000      0.307  23.000
   51 1.960 1.670  2.250 1.000 1.00000 1.960 1.000      7.895  23.000
   52 1.960 1.670  2.250 1.000 1.00000 1.960 1.000     10.806  23.000
   53 1.920 1.634  2.206 1.000 1.00000 1.920 1.000      1.861  23.000
   54 1.960 1.670  2.250 1.000 1.00000 1.960 1.000      8.592  23.000
   55 1.960 1.670  2.250 1.000 1.00000 1.960 1.000      7.732  23.000
   56 1.920 1.634  2.206 1.000 1.00000 1.920 1.000      1.316  23.000
   57 1.960 1.670  2.250 1.000 1.00000 1.960 1.000      7.552  23.000
   58 1.920 1.634  2.206 1.000 1.00000 1.920 1.000      1.592  23.000
   59 1.930 1.643  2.217 1.000 1.00000 1.930 1.000      6.656  23.000
   60 1.960 1.670  2.250 1.000 1.00000 1.960 1.000      8.809  23.000
   61 1.960 1.670  2.250 1.000 1.00000 1.960 1.000      7.552  23.000
   62 1.960 1.670  2.250 1.000 1.00000 1.960 1.000      8.592  23.000
   63 1.920 1.634  2.206 1.000 1.00000 1.920 1.000      0.389  23.000
   64 1.920 1.634  2.206 1.000 1.00000 1.920 1.000      0.305  23.000
   65 1.930 1.643  2.217 1.000 1.00000 1.930 1.000      4.867  23.000
   66 1.930 1.643  2.217 1.000 1.00000 1.930 1.000      3.931  23.000
   67 1.920 1.634  2.206 1.000 1.00000 1.920 1.000      0.538  23.000
   68 1.920 1.634  2.206 1.000 1.00000 1.920 1.000      0.479  23.000
   69 1.930 1.643  2.217 1.000 1.00000 1.930 1.000      3.114  23.000
   70 1.930 1.643  2.217 1.000 1.00000 1.930 1.000      6.036  23.000
   71 1.930 1.643  2.217 1.000 1.00000 1.930 1.000      3.089  23.000
   72 1.930 1.643  2.217 1.000 1.00000 1.930 1.000      4.384  23.000
   73 1.920 1.634  2.206 1.000 1.00000 1.920 1.000      0.817  23.000
   74 1.920 1.634  2.206 1.000 1.00000 1.920 1.000      0.408  23.000
   75 1.960 1.670  2.250 1.000 1.00000 1.960 1.000      8.955  23.000
   76 1.920 1.634  2.206 1.000 1.00000 1.920 1.000      2.090  23.000
   77 1.930 1.643  2.217 1.000 1.00000 1.930 1.000      5.887  23.000
   78 1.920 1.634  2.206 1.000 1.00000 1.920 1.000      0.761  23.000
   79 1.920 1.634  2.206 1.000 1.00000 1.920 1.000      0.685  23.000
   80 1.930 1.643  2.217 1.000 1.00000 1.930 1.000      6.419  23.000
   81 1.930 1.643  2.217 1.000 1.00000 1.930 1.000      3.873  23.000
   82 1.920 1.634  2.206 1.000 1.00000 1.920 1.000      0.363  23.000
   83 1.930 1.643  2.217 1.000 1.00000 1.930 1.000      2.438  23.000
   84 1.920 1.634  2.206 1.000 1.00000 1.920 1.000      0.384  23.000
   85 1.930 1.643  2.217 1.000 1.00000 1.930 1.000      2.353  23.000
   86 1.920 1.634  2.206 1.000 1.00000 1.920 1.000      0.325  23.000
   87 1.920 1.634  2.206 1.000 1.00000 1.920 1.000      0.631  23.000
   88 1.960 1.670  2.250 1.000 1.00000 1.960 1.000     24.385  23.000
   89 1.920 1.634  2.206 1.000 1.00000 1.920 1.000      0.359  23.000
   90 1.930 1.643  2.217 1.000 1.00000 1.930 1.000      4.230  23.000
   91 1.930 1.643  2.217 1.000 1.00000 1.930 1.000      5.594  23.000
   92 1.960 1.670  2.250 1.000 1.00000 1.960 1.000      7.843  23.000
   93 1.920 1.634  2.206 1.000 1.00000 1.920 1.000      1.073  23.000
   94 1.930 1.643  2.217 1.000 1.00000 1.930 1.000      7.101  23.000
   95 1.930 1.643  2.217 1.000 1.00000 1.930 1.000      2.438  23.000
   96 1.960 1.670  2.250 1.000 1.00000 1.960 1.000     53.288  23.000
   97 1.920 1.634  2.206 1.000 1.00000 1.920 1.000      0.669  23.000
   98 1.960 1.670  2.250 1.000 1.00000 1.960 1.000      7.744  23.000
   99 1.960 1.670  2.250 1.000 1.00000 1.960 1.000     11.348  23.000
  100 1.920 1.634  2.206 1.000 1.00000 1.920 1.000      1.861  23.000
  101 1.930 1.643  2.217 1.000 1.00000 1.930 1.000      2.568  23.000
  102 1.920 1.634  2.206 1.000 1.00000 1.920 1.000      0.419  23.000
  103 1.960 1.670  2.250 1.000 1.00000 1.960 1.000      8.630  23.000
  104 1.920 1.634  2.206 1.000 1.00000 1.920 1.000      1.284  23.000
  105 1.930 1.643  2.217 1.000 1.00000 1.930 1.000      3.844  23.000
  106 1.930 1.643  2.217 1.000 1.00000 1.930 1.000      2.989  23.000
  107 1.930 1.643  2.217 1.000 1.00000 1.930 1.000      4.260  23.000
  108 1.920 1.634  2.206 1.000 1.00000 1.920 1.000      1.332  23.000
  109 1.960 1.670  2.250 1.000 1.00000 1.960 1.000     20.300  23.000
  110 1.920 1.634  2.206 1.000 1.00000 1.920 1.000      1.801  23.000
  111 1.920 1.634  2.206 1.000 1.00000 1.920 1.000      1.102  23.000
  112 1.950 1.661  2.239 1.000 1.00000 1.960 1.000      7.432  23.000
  113 1.960 1.670  2.250 1.000 1.00000 1.960 1.000     24.728  23.000
  114 1.920 1.634  2.206 1.000 1.00000 1.920 1.000      0.308  23.000
  115 1.920 1.634  2.206 1.000 1.00000 1.920 1.000      0.772  23.000
  116 1.960 1.670  2.250 1.000 1.00000 1.960 1.000      9.996  23.000
  117 1.960 1.670  2.250 1.000 1.00000 1.960 1.000     10.161  23.000
  118 1.920 1.634  2.206 1.000 1.00000 1.920 1.000      0.544  23.000
  119 1.920 1.634  2.206 1.000 1.00000 1.920 1.000      0.794  23.000
  120 1.920 1.634  2.206 1.000 1.00000 1.920 1.000      0.419  23.000
  121 1.930 1.643  2.217 1.000 1.00000 1.930 1.000      5.776  23.000
  122 1.920 1.634  2.206 1.000 1.00000 1.920 1.000      0.688  23.000
  123 1.960 1.670  2.250 1.000 1.00000 1.960 1.000      9.291  23.000
  124 1.960 1.670  2.250 1.000 1.00000 1.960 1.000      7.653  23.000
  125 1.920 1.634  2.206 1.000 1.00000 1.920 1.000      0.430  23.000
  126 1.930 1.643  2.217 1.000 1.00000 1.930 1.000      2.965  23.000
  127 1.920 1.634  2.206 1.000 1.00000 1.920 1.000      1.190  23.000
  128 1.930 1.643  2.217 1.000 1.00000 1.930 1.000      3.216  23.000
  129 1.960 1.670  2.250 1.000 1.00000 1.960 1.000     16.430  23.000
  130 1.930 1.643  2.217 1.000 1.00000 1.930 1.000      4.291  23.000
  131 1.960 1.670  2.250 1.000 1.00000 1.960 1.000      9.020  23.000
  132 1.930 1.643  2.217 1.000 1.00000 1.930 1.000      3.216  23.000
  133 1.960 1.670  2.250 1.000 1.00000 1.960 1.000     12.893  23.000
  134 1.930 1.643  2.217 1.000 1.00000 1.930 1.000      6.856  23.000
  135 1.930 1.643  2.217 1.000 1.00000 1.930 1.000      3.590  23.000
  136 1.950 1.661  2.239 1.000 1.00000 1.960 1.000      7.447  23.000
  137 1.960 1.670  2.250 1.000 1.00000 1.960 1.000      8.036  23.000
  138 1.960 1.670  2.250 1.000 1.00000 1.960 1.000      8.809  23.000
  139 1.920 1.634  2.206 1.000 1.00000 1.920 1.000      0.375  23.000
  140 1.920 1.634  2.206 1.000 1.00000 1.920 1.000      0.538  23.000
  141 1.920 1.634  2.206 1.000 1.00000 1.920 1.000      0.306  23.000
  142 1.920 1.634  2.206 1.000 1.00000 1.920 1.000      0.419  23.000
  143 1.920 1.634  2.206 1.000 1.00000 1.920 1.000      0.352  23.000
  144 1.960 1.670  2.250 1.000 1.00000 1.960 1.000      9.064  23.000
  145 1.960 1.670  2.250 1.000 1.00000 1.960 1.000      8.789  23.000
  146 1.960 1.670  2.250 1.000 1.00000 1.960 1.000      8.305  23.000
  147 1.920 1.634  2.206 1.000 1.00000 1.920 1.000      0.698  23.000
  148 1.920 1.634  2.206 1.000 1.00000 1.920 1.000      0.578  23.000
  149 1.960 1.670  2.250 1.000 1.00000 1.960 1.000     27.081  23.000
  150 1.920 1.634  2.206 1.000 1.00000 1.920 1.000      0.688  23.000
  151 1.930 1.643  2.217 1.000 1.00000 1.930 1.000      2.291  23.000
  152 1.930 1.643  2.217 1.000 1.00000 1.930 1.000      2.438  23.000
  153 1.920 1.634  2.206 1.000 1.00000 1.920 1.000      1.484  23.000
  154 1.920 1.634  2.206 1.000 1.00000 1.920 1.000      0.473  23.000
  155 1.960 1.670  2.250 1.000 1.00000 1.960 1.000     10.564  23.000
  156 1.930 1.643  2.217 1.000 1.00000 1.930 1.000      3.990  23.000
  157 1.930 1.643  2.217 1.000 1.00000 1.930 1.000      3.242  23.000
  158 1.920 1.634  2.206 1.000 1.00000 1.920 1.000      1.382  23.000
  159 1.960 1.670  2.250 1.000 1.00000 1.960 1.000      9.198  23.000
  160 1.930 1.643  2.217 1.000 1.00000 1.930 1.000      7.060  23.000
  161 1.920 1.634  2.206 1.000 1.00000 1.920 1.000      0.847  23.000
  162 1.960 1.670  2.250 1.000 1.00000 1.960 1.000      9.482  23.000
  163 1.920 1.634  2.206 1.000 1.00000 1.920 1.000      2.112  23.000
  164 1.930 1.643  2.217 1.000 1.00000 1.930 1.000      4.934  23.000
  165 1.930 1.643  2.217 1.000 1.00000 1.930 1.000      4.606  23.000
  166 1.960 1.670  2.250 1.000 1.00000 1.960 1.000     17.293  23.000
  167 1.930 1.643  2.217 1.000 1.00000 1.930 1.000      6.074  23.000
  168 1.960 1.670  2.250 1.000 1.00000 1.960 1.000     14.553  23.000
  169 1.960 1.670  2.250 1.000 1.00000 1.960 1.000     10.714  23.000
  170 1.960 1.670  2.250 1.000 1.00000 1.960 1.000     10.446  23.000
  171 1.920 1.634  2.206 1.000 1.00000 1.920 1.000      0.480  23.000
  172 1.960 1.670  2.250 1.000 1.00000 1.960 1.000     10.868  23.000
  173 1.920 1.634  2.206 1.000 1.00000 1.920 1.000      1.018  23.000
  174 1.920 1.634  2.206 1.000 1.00000 1.920 1.000      0.375  23.000
  175 1.940 1.652  2.228 1.000 1.00000 1.960 1.000      7.409  23.000
  176 1.960 1.670  2.250 1.000 1.00000 1.960 1.000     11.481  23.000
  177 1.960 1.670  2.250 1.000 1.00000 1.960 1.000      9.996  23.000
  178 1.930 1.643  2.217 1.000 1.00000 1.930 1.000      3.294  23.000
  179 1.960 1.670  2.250 1.000 1.00000 1.960 1.000      7.805  23.000
  180 1.920 1.634  2.206 1.000 1.00000 1.920 1.000      0.544  23.000
  181 1.930 1.643  2.217 1.000 1.00000 1.930 1.000      5.961  23.000
  182 1.960 1.670  2.250 1.000 1.00000 1.960 1.000     27.451  23.000
  183 1.960 1.670  2.250 1.000 1.00000 1.960 1.000     10.051  23.000
  184 1.960 1.670  2.250 1.000 1.00000 1.960 1.000      7.830  23.000
  185 1.930 1.643  2.217 1.000 1.00000 1.930 1.000      4.019  23.000
  186 1.920 1.634  2.206 1.000 1.00000 1.920 1.000      0.436  23.000
  187 1.930 1.643  2.217 1.000 1.00000 1.930 1.000      7.226  23.000
  188 1.920 1.634  2.206 1.000 1.00000 1.920 1.000      0.380  23.000
  189 1.930 1.643  2.217 1.000 1.00000 1.930 1.000      6.537  23.000
  190 1.920 1.634  2.206 1.000 1.00000 1.920 1.000      0.913  23.000
  191 1.960 1.670  2.250 1.000 1.00000 1.960 1.000      7.922  23.000
  192 1.960 1.670  2.250 1.000 1.00000 1.960 1.000      7.533  23.000
  193 1.930 1.643  2.217 1.000 1.00000 1.930 1.000      6.498  23.000
  194 1.960 1.670  2.250 1.000 1.00000 1.960 1.000     12.970  23.000
  195 1.920 1.634  2.206 1.000 1.00000 1.920 1.000      0.729  23.000
  196 1.920 1.634  2.206 1.000 1.00000 1.920 1.000      0.328  23.000
  197 1.920 1.634  2.206 1.000 1.00000 1.920 1.000      1.704  23.000
  198 1.920 1.634  2.206 1.000 1.00000 1.920 1.000      0.783  23.000
  199 1.920 1.634  2.206 1.000 1.00000 1.920 1.000      0.521  23.000
  200 1.930 1.643  2.217 1.000 1.00000 1.930 1.000      3.114  23.000
  201 1.930 1.643  2.217 1.000 1.00000 1.930 1.000      2.332  23.000
  202 1.960 1.670  2.250 1.000 1.00000 1.960 1.000     11.720  23.000
  203 1.920 1.634  2.206 1.000 1.00000 1.920 1.000      0.307  23.000
  204 1.930 1.643  2.217 1.000 1.00000 1.930 1.000      5.310  23.000
  205 1.920 1.634  2.206 1.000 1.00000 1.920 1.000      0.330  23.000
  206 1.920 1.634  2.206 1.000 1.00000 1.920 1.000      1.942  23.000
  207 1.930 1.643  2.217 1.000 1.00000 1.930 1.000      5.522  23.000
  208 1.920 1.634  2.206 1.000 1.00000 1.920 1.000      1.484  23.000
  209 1.920 1.634  2.206 1.000 1.00000 1.920 1.000      0.965  23.000
  210 1.960 1.670  2.250 1.000 1.00000 1.960 1.000     11.024  23.000
  211 1.920 1.634  2.206 1.000 1.00000 1.920 1.000      0.454  23.000
  212 1.920 1.634  2.206 1.000 1.00000 1.920 1.000      0.620  23.000
  213 1.920 1.634  2.206 1.000 1.00000 1.920 1.000      0.453  23.000
  214 1.920 1.634  2.206 1.000 1.00000 1.920 1.000      0.454  23.000
  215 1.960 1.670  2.250 1.000 1.00000 1.960 1.000      9.836  23.000
  216 1.930 1.643  2.217 1.000 1.00000 1.930 1.000      2.774  23.000
  217 1.920 1.634  2.206 1.000 1.00000 1.920 1.000      0.530  23.000
  218 1.930 1.643  2.217 1.000 1.00000 1.930 1.000      3.242  23.000
  219 1.960 1.670  2.250 1.000 1.00000 1.960 1.000     11.056  23.000
  220 1.920 1.634  2.206 1.000 1.00000 1.920 1.000      1.102  23.000
  221 1.960 1.670  2.250 1.000 1.00000 1.960 1.000      8.322  23.000
  222 1.940 1.652  2.228 1.000 1.00000 1.930 1.000      7.268  23.000
  223 1.960 1.670  2.250 1.000 1.00000 1.960 1.000      8.081  23.000
  224 1.920 1.634  2.206 1.000 1.00000 1.920 1.000      0.336  23.000
  225 1.920 1.634  2.206 1.000 1.00000 1.920 1.000      0.740  23.000
  226 1.930 1.643  2.217 1.000 1.00000 1.930 1.000      7.226  23.000
  227 1.930 1.643  2.217 1.000 1.00000 1.930 1.000      3.931  23.000
  228 1.930 1.643  2.217 1.000 1.00000 1.930 1.000      4.079  23.000
  229 1.920 1.634  2.206 1.000 1.00000 1.920 1.000      1.398  23.000
  230 1.960 1.670  2.250 1.000 1.00000 1.960 1.000     16.629  23.000
  231 1.930 1.643  2.217 1.000 1.00000 1.930 1.000      5.813  23.000
  232 1.960 1.670  2.250 1.000 1.00000 1.960 1.000     16.579  23.000
  233 1.960 1.670  2.250 1.000 1.00000 1.960 1.000      8.021  23.000
  234 1.960 1.670  2.250 1.000 1.00000 1.960 1.000      9.836  23.000
  235 1.920 1.634  2.206 1.000 1.00000 1.920 1.000      0.393  23.000
  236 1.960 1.670  2.250 1.000 1.00000 1.960 1.000      7.950  23.000
  237 1.920 1.634  2.206 1.000 1.00000 1.920 1.000      0.355  23.000
  238 1.930 1.643  2.217 1.000 1.00000 1.930 1.000      5.451  23.000
  239 1.920 1.634  2.206 1.000 1.00000 1.920 1.000      0.304  23.000
  240 1.920 1.634  2.206 1.000 1.00000 1.920 1.000      1.018  23.000
  241 1.930 1.643  2.217 1.000 1.00000 1.930 1.000      4.574  23.000
  242 1.960 1.670  2.250 1.000 1.00000 1.960 1.000     11.754  23.000
  243 1.960 1.670  2.250 1.000 1.00000 1.960 1.000     10.417  23.000
  244 1.920 1.634  2.206 1.000 1.00000 1.920 1.000      0.772  23.000
  245 1.920 1.634  2.206 1.000 1.00000 1.920 1.000      0.538  23.000
  246 1.960 1.670  2.250 1.000 1.00000 1.960 1.000     10.417  23.000
  247 1.920 1.634  2.206 1.000 1.00000 1.920 1.000      1.821  23.000
  248 1.920 1.634  2.206 1.000 1.00000 1.920 1.000      1.762  23.000
  249 1.920 1.634  2.206 1.000 1.00000 1.920 1.000      1.102  23.000
  250 1.930 1.643  2.217 1.000 1.00000 1.930 1.000      2.797  23.000
  251 1.920 1.634  2.206 1.000 1.00000 1.920 1.000      1.502  23.000
  252 1.930 1.643  2.217 1.000 1.00000 1.930 1.000      5.380  23.000
  253 1.960 1.670  2.250 1.000 1.00000 1.960 1.000     36.572  23.000
  254 1.920 1.634  2.206 1.000 1.00000 1.920 1.000      0.585  23.000
  255 1.920 1.634  2.206 1.000 1.00000 1.920 1.000      0.806  23.000
  256 1.960 1.670  2.250 1.000 1.00000 1.960 1.000     10.868  23.000
  257 1.960 1.670  2.250 1.000 1.00000 1.960 1.000     19.597  23.000
  258 1.920 1.634  2.206 1.000 1.00000 1.920 1.000      0.479  23.000
  259 1.920 1.634  2.206 1.000 1.00000 1.920 1.000      1.102  23.000
  260 1.960 1.670  2.250 1.000 1.00000 1.960 1.000     20.659  23.000
  261 1.920 1.634  2.206 1.000 1.00000 1.920 1.000      0.312  23.000
  262 1.920 1.634  2.206 1.000 1.00000 1.920 1.000      0.312  23.000
  263 1.960 1.670  2.250 1.000 1.00000 1.960 1.000     20.063  23.000
  264 1.930 1.643  2.217 1.000 1.00000 1.930 1.000      3.039  23.000
  265 1.920 1.634  2.206 1.000 1.00000 1.920 1.000      1.467  23.000
  266 1.960 1.670  2.250 1.000 1.00000 1.960 1.000      7.571  23.000
  267 1.930 1.643  2.217 1.000 1.00000 1.930 1.000      4.735  23.000
  268 1.930 1.643  2.217 1.000 1.00000 1.930 1.000      2.395  23.000
  269 1.930 1.643  2.217 1.000 1.00000 1.930 1.000      3.786  23.000
