## File LOS/SB2_B2004a_2.5z_Mags_1200.bpz  Sat Aug 13 01:32:22 2016
##
##Parameters used to run BPZ:
##
##AB_DIR=/home/lidenscheng/bpz-1.99.3//AB/
##ADD_CONTINUOUS_PROB=None
##ADD_SPEC_PROB=None
##CHECK=LOS/SB2_B2004a_2.5z_Mags_1200.flux_comparison
##COLOR=no
##COLUMNS=losNoErrors.columns
##CONVOLVE_P=yes
##DELTA_M_0=0.0
##DZ=0.01
##EXCLUDE=none
##FC=None
##FILTER_DIR=/home/lidenscheng/MK_DirectSim/filters/
##GET_Z=yes
##INPUT=LOS/SB2_B2004a_2.5z_Mags_1200.txt
##INTERACTIVE=yes
##INTERP=0
##MADAU=no
##MAG=yes
##MEAN_IGM=yes
##MERGE_PEAKS=no
##MIN_MAGERR=0.001
##MIN_RMS=0.05
##NEW_AB=no
##NMAX=None
##NTYPES=None
##N_PEAKS=1
##ODDS=0.95
##ONLY_TYPE=no
##OUTPUT=LOS/SB2_B2004a_2.5z_Mags_1200.bpz
##PHOTO_ERRORS=no
##PLOTS=no
##PRIOR=none
##PROBS=no
##PROBS2=no
##PROBS_LITE=LOS/SB2_B2004a_2.5z_Mags_1200.probs
##P_MIN=0.01
##SED_DIR=/home/lidenscheng/MK_DirectSim/SEDs/
##SPECTRA=SB2.list
##VERBOSE=yes
##ZC=None
##ZMAX=10.0
##ZMIN=0.01
##ZP_OFFSETS=0.0
##Z_THR=0
##
##Column information
##
# 1 ID
# 2 Z_B
# 3 Z_B_MIN
# 4 Z_B_MAX
# 5 T_B
# 6 ODDS    
# 7 Z_ML
# 8 T_ML
# 9 CHI-SQUARED
# 10 M_0
##
    1 2.500 2.157  2.843 1.000 1.00000 2.510 1.000      0.909  23.000
    2 2.540 2.193  2.887 1.000 1.00000 2.540 1.000      1.392  23.000
    3 2.490 2.148  2.832 1.000 1.00000 2.490 1.000      0.230  23.000
    4 2.490 2.148  2.832 1.000 1.00000 2.490 1.000      0.261  23.000
    5 2.530 2.184  2.876 1.000 1.00000 2.530 1.000      1.043  23.000
    6 2.550 2.202  2.898 1.000 1.00000 2.550 1.000      1.228  23.000
    7 2.560 2.211  2.909 1.000 1.00000 2.550 1.000      6.632  23.000
    8 2.550 2.202  2.898 1.000 1.00000 2.550 1.000      4.461  23.000
    9 2.520 2.175  2.865 1.000 1.00000 2.520 1.000      2.641  23.000
   10 2.570 2.220  2.920 1.000 1.00000 2.570 1.000      2.606  23.000
   11 2.540 2.193  2.887 1.000 1.00000 2.540 1.000      1.751  23.000
   12 2.550 2.202  2.898 1.000 1.00000 2.550 1.000      2.174  23.000
   13 2.580 2.229  2.931 1.000 1.00000 2.580 1.000      1.872  23.000
   14 2.580 2.229  2.931 1.000 1.00000 2.580 1.000      1.712  23.000
   15 2.540 2.193  2.887 1.000 1.00000 2.540 1.000      1.802  23.000
   16 2.630 2.274  2.986 1.000 1.00000 2.630 1.000     10.323  23.000
   17 2.640 2.283  2.997 1.000 1.00000 2.640 1.000      5.160  23.000
   18 2.450 2.112  2.788 1.000 1.00000 2.450 1.000      3.724  23.000
   19 2.500 2.157  2.843 1.000 1.00000 2.500 1.000      0.585  23.000
   20 2.620 2.265  2.975 1.000 1.00000 2.620 1.000      3.317  23.000
   21 2.610 2.256  2.964 1.000 1.00000 2.610 1.000      4.294  23.000
   22 2.530 2.184  2.876 1.000 1.00000 2.540 1.000      0.795  23.000
   23 2.570 2.220  2.920 1.000 1.00000 2.570 1.000      3.764  23.000
   24 2.450 2.112  2.788 1.000 1.00000 2.450 1.000      4.329  23.000
   25 2.490 2.148  2.832 1.000 1.00000 2.490 1.000      0.353  23.000
   26 2.620 2.265  2.975 1.000 1.00000 2.620 1.000      3.649  23.000
   27 2.540 2.193  2.887 1.000 1.00000 2.540 1.000      2.517  23.000
   28 2.540 2.193  2.887 1.000 1.00000 2.540 1.000      2.110  23.000
   29 2.530 2.184  2.876 1.000 1.00000 2.530 1.000      1.114  23.000
   30 2.590 2.238  2.942 1.000 1.00000 2.590 1.000      7.415  23.000
   31 2.440 2.103  2.777 1.000 1.00000 2.440 1.000      2.299  23.000
   32 2.510 2.166  2.854 1.000 1.00000 2.510 1.000      0.378  23.000
   33 2.470 2.130  2.810 1.000 1.00000 2.470 1.000      1.463  23.000
   34 2.460 2.121  2.799 1.000 1.00000 2.460 1.000      5.235  23.000
   35 2.560 2.211  2.909 1.000 1.00000 2.560 1.000      1.670  23.000
   36 2.540 2.193  2.887 1.000 1.00000 2.540 1.000      1.316  23.000
   37 2.550 2.202  2.898 1.000 1.00000 2.550 1.000      4.480  23.000
   38 2.560 2.211  2.909 1.000 1.00000 2.560 1.000      1.699  23.000
   39 2.600 2.247  2.953 1.000 1.00000 2.600 1.000      3.069  23.000
   40 2.450 2.112  2.788 1.000 1.00000 2.450 1.000      3.170  23.000
   41 2.560 2.211  2.909 1.000 1.00000 2.560 1.000      2.390  23.000
   42 2.590 2.238  2.942 1.000 1.00000 2.590 1.000      2.224  23.000
   43 2.490 2.148  2.832 1.000 1.00000 2.490 1.000      0.554  23.000
   44 2.640 2.283  2.997 1.000 1.00000 2.640 1.000     15.032  23.000
   45 2.620 2.265  2.975 1.000 1.00000 2.620 1.000      4.216  23.000
   46 2.570 2.220  2.920 1.000 1.00000 2.570 1.000      4.432  23.000
   47 2.500 2.157  2.843 1.000 1.00000 2.500 1.000      1.702  23.000
   48 2.620 2.265  2.975 1.000 1.00000 2.620 1.000      5.474  23.000
   49 2.660 2.301  3.019 1.000 1.00000 2.660 1.000     30.298  23.000
   50 2.640 2.283  2.997 1.000 1.00000 2.640 1.000      9.433  23.000
   51 2.650 2.292  3.008 1.000 1.00000 2.650 1.000     14.008  23.000
   52 2.590 2.238  2.942 1.000 1.00000 2.590 1.000      4.020  23.000
   53 2.470 2.130  2.810 1.000 1.00000 2.470 1.000      0.863  23.000
   54 2.500 2.157  2.843 1.000 1.00000 2.500 1.000      1.509  23.000
   55 2.540 2.193  2.887 1.000 1.00000 2.540 1.000      0.976  23.000
   56 2.520 2.175  2.865 1.000 1.00000 2.520 1.000      0.231  23.000
   57 2.490 2.148  2.832 1.000 1.00000 2.490 1.000      0.313  23.000
   58 2.530 2.184  2.876 1.000 1.00000 2.530 1.000      3.647  23.000
   59 2.510 2.166  2.854 1.000 1.00000 2.510 1.000      0.267  23.000
   60 2.550 2.202  2.898 1.000 1.00000 2.550 1.000      3.097  23.000
   61 2.550 2.202  2.898 1.000 1.00000 2.550 1.000      2.084  23.000
   62 2.570 2.220  2.920 1.000 1.00000 2.570 1.000      7.248  23.000
   63 2.510 2.166  2.854 1.000 1.00000 2.510 1.000      0.315  23.000
   64 2.630 2.274  2.986 1.000 1.00000 2.630 1.000     12.168  23.000
   65 2.550 2.202  2.898 1.000 1.00000 2.550 1.000      3.910  23.000
   66 2.450 2.112  2.788 1.000 1.00000 2.450 1.000      7.249  23.000
   67 2.530 2.184  2.876 1.000 1.00000 2.530 1.000      1.111  23.000
   68 2.570 2.220  2.920 1.000 1.00000 2.570 1.000      6.137  23.000
   69 2.540 2.193  2.887 1.000 1.00000 2.540 1.000      1.214  23.000
   70 2.550 2.202  2.898 1.000 1.00000 2.550 1.000      3.925  23.000
   71 2.480 2.139  2.821 1.000 1.00000 2.480 1.000      0.535  23.000
   72 2.640 2.283  2.997 1.000 1.00000 2.640 1.000     13.121  23.000
   73 2.550 2.202  2.898 1.000 1.00000 2.550 1.000      1.078  23.000
   74 2.550 2.202  2.898 1.000 1.00000 2.550 1.000      6.685  23.000
   75 2.580 2.229  2.931 1.000 1.00000 2.580 1.000      3.372  23.000
   76 2.520 2.175  2.865 1.000 1.00000 2.520 1.000      0.179  23.000
   77 2.590 2.238  2.942 1.000 1.00000 2.590 1.000      3.165  23.000
   78 2.600 2.247  2.953 1.000 1.00000 2.600 1.000      2.974  23.000
   79 2.540 2.193  2.887 1.000 1.00000 2.540 1.000      2.187  23.000
   80 2.590 2.238  2.942 1.000 1.00000 2.590 1.000      7.393  23.000
   81 2.550 2.202  2.898 1.000 1.00000 2.550 1.000      1.548  23.000
   82 2.580 2.229  2.931 1.000 1.00000 2.580 1.000      4.153  23.000
   83 2.530 2.184  2.876 1.000 1.00000 2.530 1.000      0.925  23.000
   84 2.460 2.121  2.799 1.000 1.00000 2.460 1.000      1.463  23.000
   85 2.550 2.202  2.898 1.000 1.00000 2.550 1.000      2.229  23.000
   86 2.580 2.229  2.931 1.000 1.00000 2.580 1.000      4.703  23.000
   87 2.590 2.238  2.942 1.000 1.00000 2.590 1.000      4.886  23.000
   88 2.500 2.157  2.843 1.000 1.00000 2.500 1.000      0.073  23.000
   89 2.550 2.202  2.898 1.000 1.00000 2.550 1.000      1.689  23.000
   90 2.510 2.166  2.854 1.000 1.00000 2.510 1.000      0.319  23.000
   91 2.540 2.193  2.887 1.000 1.00000 2.540 1.000      2.391  23.000
   92 2.610 2.256  2.964 1.000 1.00000 2.610 1.000      9.517  23.000
   93 2.570 2.220  2.920 1.000 1.00000 2.570 1.000      2.017  23.000
   94 2.480 2.139  2.821 1.000 1.00000 2.480 1.000      1.463  23.000
   95 2.460 2.121  2.799 1.000 1.00000 2.460 1.000      2.209  23.000
   96 2.600 2.247  2.953 1.000 1.00000 2.600 1.000      6.305  23.000
   97 2.530 2.184  2.876 1.000 1.00000 2.530 1.000      3.589  23.000
   98 2.540 2.193  2.887 1.000 1.00000 2.540 1.000      2.950  23.000
   99 2.540 2.193  2.887 1.000 1.00000 2.540 1.000      0.723  23.000
  100 2.540 2.193  2.887 1.000 1.00000 2.540 1.000      1.819  23.000
  101 2.540 2.193  2.887 1.000 1.00000 2.540 1.000      1.902  23.000
  102 2.550 2.202  2.898 1.000 1.00000 2.550 1.000      4.328  23.000
  103 2.490 2.148  2.832 1.000 1.00000 2.490 1.000      0.294  23.000
  104 2.590 2.238  2.942 1.000 1.00000 2.590 1.000      2.563  23.000
  105 2.560 2.211  2.909 1.000 1.00000 2.560 1.000      1.477  23.000
  106 2.500 2.157  2.843 1.000 1.00000 2.500 1.000      0.804  23.000
  107 2.640 2.283  2.997 1.000 1.00000 2.640 1.000      8.233  23.000
  108 2.550 2.202  2.898 1.000 1.00000 2.550 1.000      2.833  23.000
  109 2.520 2.175  2.865 1.000 1.00000 2.520 1.000      1.272  23.000
  110 2.640 2.283  2.997 1.000 1.00000 2.640 1.000      2.512  23.000
  111 2.610 2.256  2.964 1.000 1.00000 2.610 1.000      4.737  23.000
  112 2.550 2.202  2.898 1.000 1.00000 2.550 1.000      0.643  23.000
  113 2.540 2.193  2.887 1.000 1.00000 2.540 1.000      2.771  23.000
  114 2.510 2.166  2.854 1.000 1.00000 2.510 1.000      0.125  23.000
  115 2.490 2.148  2.832 1.000 1.00000 2.490 1.000      2.706  23.000
  116 2.600 2.247  2.953 1.000 1.00000 2.600 1.000     11.110  23.000
  117 2.550 2.202  2.898 1.000 1.00000 2.550 1.000      3.877  23.000
  118 2.530 2.184  2.876 1.000 1.00000 2.530 1.000      0.398  23.000
  119 2.570 2.220  2.920 1.000 1.00000 2.570 1.000      1.522  23.000
  120 2.570 2.220  2.920 1.000 1.00000 2.570 1.000      7.231  23.000
  121 2.610 2.256  2.964 1.000 1.00000 2.610 1.000      1.503  23.000
  122 2.650 2.292  3.008 1.000 1.00000 2.650 1.000     11.772  23.000
  123 2.610 2.256  2.964 1.000 1.00000 2.610 1.000      8.889  23.000
  124 2.490 2.148  2.832 1.000 1.00000 2.490 1.000      0.318  23.000
  125 2.610 2.256  2.964 1.000 1.00000 2.610 1.000      1.624  23.000
  126 2.540 2.193  2.887 1.000 1.00000 2.540 1.000      1.191  23.000
  127 2.580 2.229  2.931 1.000 1.00000 2.580 1.000      8.268  23.000
  128 2.500 2.157  2.843 1.000 1.00000 2.500 1.000      0.119  23.000
  129 2.490 2.148  2.832 1.000 1.00000 2.490 1.000      1.308  23.000
  130 2.420 2.085  2.755 1.000 1.00000 2.420 1.000      8.415  23.000
  131 2.620 2.265  2.975 1.000 1.00000 2.620 1.000      6.362  23.000
  132 2.540 2.193  2.887 1.000 1.00000 2.540 1.000      3.400  23.000
  133 2.530 2.184  2.876 1.000 1.00000 2.530 1.000      2.413  23.000
  134 2.560 2.211  2.909 1.000 1.00000 2.560 1.000      6.452  23.000
  135 2.480 2.139  2.821 1.000 1.00000 2.490 1.000      0.479  23.000
  136 2.570 2.220  2.920 1.000 1.00000 2.570 1.000      3.921  23.000
  137 2.460 2.121  2.799 1.000 1.00000 2.460 1.000      2.223  23.000
  138 2.520 2.175  2.865 1.000 1.00000 2.520 1.000      0.709  23.000
  139 2.650 2.292  3.008 1.000 1.00000 2.650 1.000      3.882  23.000
  140 2.530 2.184  2.876 1.000 1.00000 2.540 1.000      1.618  23.000
  141 2.550 2.202  2.898 1.000 1.00000 2.550 1.000      2.258  23.000
  142 2.520 2.175  2.865 1.000 1.00000 2.520 1.000      2.272  23.000
  143 2.570 2.220  2.920 1.000 1.00000 2.570 1.000      1.237  23.000
  144 2.530 2.184  2.876 1.000 1.00000 2.530 1.000      0.621  23.000
  145 2.540 2.193  2.887 1.000 1.00000 2.540 1.000      1.792  23.000
  146 2.530 2.184  2.876 1.000 1.00000 2.530 1.000      1.411  23.000
  147 2.660 2.301  3.019 1.000 1.00000 2.660 1.000     19.468  23.000
  148 2.610 2.256  2.964 1.000 1.00000 2.610 1.000      3.720  23.000
  149 2.540 2.193  2.887 1.000 1.00000 2.540 1.000      1.450  23.000
  150 2.460 2.121  2.799 1.000 1.00000 2.460 1.000      1.703  23.000
  151 2.530 2.184  2.876 1.000 1.00000 2.530 1.000      1.181  23.000
  152 2.540 2.193  2.887 1.000 1.00000 2.540 1.000      1.013  23.000
  153 2.500 2.157  2.843 1.000 1.00000 2.500 1.000      0.166  23.000
  154 2.630 2.274  2.986 1.000 1.00000 2.630 1.000     10.335  23.000
  155 2.620 2.265  2.975 1.000 1.00000 2.620 1.000      7.155  23.000
  156 2.610 2.256  2.964 1.000 1.00000 2.610 1.000      8.535  23.000
  157 2.500 2.157  2.843 1.000 1.00000 2.500 1.000      0.123  23.000
  158 2.560 2.211  2.909 1.000 1.00000 2.560 1.000      4.682  23.000
  159 2.550 2.202  2.898 1.000 1.00000 2.550 1.000      3.258  23.000
  160 2.470 2.130  2.810 1.000 1.00000 2.470 1.000      0.685  23.000
  161 2.530 2.184  2.876 1.000 1.00000 2.530 1.000      0.415  23.000
  162 2.490 2.148  2.832 1.000 1.00000 2.490 1.000      1.795  23.000
  163 2.600 2.247  2.953 1.000 1.00000 2.600 1.000      3.124  23.000
  164 2.510 2.166  2.854 1.000 1.00000 2.510 1.000      0.206  23.000
  165 2.490 2.148  2.832 1.000 1.00000 2.490 1.000      0.158  23.000
  166 2.530 2.184  2.876 1.000 1.00000 2.530 1.000      0.461  23.000
  167 2.560 2.211  2.909 1.000 1.00000 2.560 1.000      6.731  23.000
  168 2.500 2.157  2.843 1.000 1.00000 2.500 1.000      0.170  23.000
  169 2.550 2.202  2.898 1.000 1.00000 2.550 1.000      2.336  23.000
  170 2.510 2.166  2.854 1.000 1.00000 2.510 1.000      0.211  23.000
  171 2.560 2.211  2.909 1.000 1.00000 2.550 1.000      0.873  23.000
  172 2.470 2.130  2.810 1.000 1.00000 2.470 1.000      1.263  23.000
  173 2.580 2.229  2.931 1.000 1.00000 2.580 1.000      1.894  23.000
  174 2.460 2.121  2.799 1.000 1.00000 2.460 1.000      4.031  23.000
  175 2.460 2.121  2.799 1.000 1.00000 2.460 1.000      1.866  23.000
  176 2.570 2.220  2.920 1.000 1.00000 2.570 1.000      6.945  23.000
  177 2.550 2.202  2.898 1.000 1.00000 2.550 1.000      7.094  23.000
  178 2.590 2.238  2.942 1.000 1.00000 2.590 1.000      4.622  23.000
  179 2.470 2.130  2.810 1.000 1.00000 2.470 1.000      1.018  23.000
  180 2.650 2.292  3.008 1.000 1.00000 2.650 1.000      5.793  23.000
  181 2.470 2.130  2.810 1.000 1.00000 2.470 1.000      1.271  23.000
  182 2.440 2.103  2.777 1.000 1.00000 2.440 1.000      4.755  23.000
  183 2.640 2.283  2.997 1.000 1.00000 2.640 1.000      7.922  23.000
  184 2.540 2.193  2.887 1.000 1.00000 2.540 1.000      0.986  23.000
  185 2.510 2.166  2.854 1.000 1.00000 2.520 1.000      3.176  23.000
  186 2.470 2.130  2.810 1.000 1.00000 2.470 1.000      0.718  23.000
  187 2.550 2.202  2.898 1.000 1.00000 2.550 1.000      1.213  23.000
  188 2.540 2.193  2.887 1.000 1.00000 2.540 1.000      1.645  23.000
  189 2.540 2.193  2.887 1.000 1.00000 2.540 1.000      3.694  23.000
  190 2.530 2.184  2.876 1.000 1.00000 2.540 1.000      0.623  23.000
  191 2.540 2.193  2.887 1.000 1.00000 2.540 1.000      3.784  23.000
  192 2.620 2.265  2.975 1.000 1.00000 2.620 1.000      8.602  23.000
  193 2.640 2.283  2.997 1.000 1.00000 2.640 1.000     12.012  23.000
  194 2.540 2.193  2.887 1.000 1.00000 2.540 1.000      2.578  23.000
  195 2.570 2.220  2.920 1.000 1.00000 2.570 1.000      4.693  23.000
  196 2.460 2.121  2.799 1.000 1.00000 2.460 1.000      3.652  23.000
  197 2.570 2.220  2.920 1.000 1.00000 2.570 1.000      6.003  23.000
  198 2.530 2.184  2.876 1.000 1.00000 2.530 1.000      0.336  23.000
  199 2.560 2.211  2.909 1.000 1.00000 2.570 1.000      5.232  23.000
  200 2.560 2.211  2.909 1.000 1.00000 2.570 1.000      6.976  23.000
  201 2.480 2.139  2.821 1.000 1.00000 2.480 1.000      0.610  23.000
  202 2.650 2.292  3.008 1.000 1.00000 2.650 1.000      7.931  23.000
  203 2.540 2.193  2.887 1.000 1.00000 2.540 1.000      0.971  23.000
  204 2.610 2.256  2.964 1.000 1.00000 2.610 1.000      7.295  23.000
  205 2.650 2.292  3.008 1.000 1.00000 2.650 1.000      6.324  23.000
  206 2.630 2.274  2.986 1.000 1.00000 2.630 1.000     13.082  23.000
  207 2.550 2.202  2.898 1.000 1.00000 2.550 1.000      1.648  23.000
  208 2.620 2.265  2.975 1.000 1.00000 2.620 1.000      6.358  23.000
  209 2.540 2.193  2.887 1.000 1.00000 2.540 1.000      2.441  23.000
  210 2.640 2.283  2.997 1.000 1.00000 2.640 1.000     10.363  23.000
  211 2.560 2.211  2.909 1.000 1.00000 2.560 1.000      1.289  23.000
  212 2.610 2.256  2.964 1.000 1.00000 2.610 1.000      9.037  23.000
  213 2.480 2.139  2.821 1.000 1.00000 2.480 1.000      3.964  23.000
  214 2.540 2.193  2.887 1.000 1.00000 2.540 1.000      6.436  23.000
  215 2.450 2.112  2.788 1.000 1.00000 2.450 1.000      2.653  23.000
  216 2.550 2.202  2.898 1.000 1.00000 2.550 1.000      1.923  23.000
  217 2.530 2.184  2.876 1.000 1.00000 2.530 1.000      1.962  23.000
  218 2.580 2.229  2.931 1.000 1.00000 2.580 1.000      2.869  23.000
  219 2.590 2.238  2.942 1.000 1.00000 2.590 1.000      2.066  23.000
  220 2.520 2.175  2.865 1.000 1.00000 2.520 1.000      1.054  23.000
  221 2.550 2.202  2.898 1.000 1.00000 2.550 1.000      4.685  23.000
  222 2.550 2.202  2.898 1.000 1.00000 2.550 1.000      5.302  23.000
  223 2.540 2.193  2.887 1.000 1.00000 2.540 1.000      1.853  23.000
  224 2.550 2.202  2.898 1.000 1.00000 2.550 1.000      0.877  23.000
  225 2.590 2.238  2.942 1.000 1.00000 2.590 1.000      4.820  23.000
  226 2.540 2.193  2.887 1.000 1.00000 2.540 1.000      1.764  23.000
  227 2.570 2.220  2.920 1.000 1.00000 2.570 1.000      2.456  23.000
  228 2.540 2.193  2.887 1.000 1.00000 2.540 1.000      4.386  23.000
  229 2.560 2.211  2.909 1.000 1.00000 2.560 1.000      2.680  23.000
  230 2.540 2.193  2.887 1.000 1.00000 2.540 1.000      2.154  23.000
  231 2.530 2.184  2.876 1.000 1.00000 2.540 1.000      0.501  23.000
  232 2.600 2.247  2.953 1.000 1.00000 2.600 1.000      6.019  23.000
  233 2.540 2.193  2.887 1.000 1.00000 2.540 1.000      2.326  23.000
  234 2.620 2.265  2.975 1.000 1.00000 2.620 1.000     10.159  23.000
  235 2.500 2.157  2.843 1.000 1.00000 2.500 1.000      0.093  23.000
  236 2.550 2.202  2.898 1.000 1.00000 2.550 1.000      2.837  23.000
  237 2.490 2.148  2.832 1.000 1.00000 2.490 1.000      1.236  23.000
  238 2.570 2.220  2.920 1.000 1.00000 2.570 1.000      2.026  23.000
  239 2.540 2.193  2.887 1.000 1.00000 2.540 1.000      1.640  23.000
  240 2.580 2.229  2.931 1.000 1.00000 2.580 1.000      0.983  23.000
  241 2.540 2.193  2.887 1.000 1.00000 2.540 1.000      4.664  23.000
  242 2.540 2.193  2.887 1.000 1.00000 2.540 1.000      0.732  23.000
  243 2.550 2.202  2.898 1.000 1.00000 2.550 1.000      2.460  23.000
  244 2.530 2.184  2.876 1.000 1.00000 2.540 1.000      0.514  23.000
  245 2.510 2.166  2.854 1.000 1.00000 2.510 1.000      0.382  23.000
  246 2.610 2.256  2.964 1.000 1.00000 2.610 1.000      7.870  23.000
  247 2.610 2.256  2.964 1.000 1.00000 2.610 1.000      6.049  23.000
  248 2.540 2.193  2.887 1.000 1.00000 2.540 1.000      0.909  23.000
  249 2.560 2.211  2.909 1.000 1.00000 2.560 1.000      4.972  23.000
  250 2.630 2.274  2.986 1.000 1.00000 2.630 1.000      9.514  23.000
  251 2.540 2.193  2.887 1.000 1.00000 2.540 1.000      1.585  23.000
  252 2.520 2.175  2.865 1.000 1.00000 2.520 1.000      0.287  23.000
  253 2.610 2.256  2.964 1.000 1.00000 2.620 1.000      7.547  23.000
  254 2.570 2.220  2.920 1.000 1.00000 2.570 1.000      7.510  23.000
  255 2.560 2.211  2.909 1.000 1.00000 2.560 1.000      6.472  23.000
  256 2.530 2.184  2.876 1.000 1.00000 2.530 1.000      0.608  23.000
  257 2.540 2.193  2.887 1.000 1.00000 2.540 1.000      0.979  23.000
  258 2.540 2.193  2.887 1.000 1.00000 2.540 1.000      2.472  23.000
  259 2.520 2.175  2.865 1.000 1.00000 2.520 1.000      0.746  23.000
  260 2.540 2.193  2.887 1.000 1.00000 2.540 1.000      1.393  23.000
  261 2.510 2.166  2.854 1.000 1.00000 2.510 1.000      0.152  23.000
  262 2.640 2.283  2.997 1.000 1.00000 2.640 1.000      5.143  23.000
  263 2.550 2.202  2.898 1.000 1.00000 2.550 1.000      0.871  23.000
  264 2.660 2.301  3.019 1.000 1.00000 2.660 1.000     27.671  23.000
  265 2.620 2.265  2.975 1.000 1.00000 2.620 1.000      3.241  23.000
  266 2.570 2.220  2.920 1.000 1.00000 2.570 1.000      1.407  23.000
  267 2.570 2.220  2.920 1.000 1.00000 2.570 1.000      1.847  23.000
  268 2.510 2.166  2.854 1.000 1.00000 2.510 1.000      0.152  23.000
  269 2.610 2.256  2.964 1.000 1.00000 2.610 1.000      6.652  23.000
