## File LOS/SB2_B2004a_2.4z_Mags_1300.bpz  Sat Aug 13 01:33:10 2016
##
##Parameters used to run BPZ:
##
##AB_DIR=/home/lidenscheng/bpz-1.99.3//AB/
##ADD_CONTINUOUS_PROB=None
##ADD_SPEC_PROB=None
##CHECK=LOS/SB2_B2004a_2.4z_Mags_1300.flux_comparison
##COLOR=no
##COLUMNS=losNoErrors.columns
##CONVOLVE_P=yes
##DELTA_M_0=0.0
##DZ=0.01
##EXCLUDE=none
##FC=None
##FILTER_DIR=/home/lidenscheng/MK_DirectSim/filters/
##GET_Z=yes
##INPUT=LOS/SB2_B2004a_2.4z_Mags_1300.txt
##INTERACTIVE=yes
##INTERP=0
##MADAU=no
##MAG=yes
##MEAN_IGM=yes
##MERGE_PEAKS=no
##MIN_MAGERR=0.001
##MIN_RMS=0.05
##NEW_AB=no
##NMAX=None
##NTYPES=None
##N_PEAKS=1
##ODDS=0.95
##ONLY_TYPE=no
##OUTPUT=LOS/SB2_B2004a_2.4z_Mags_1300.bpz
##PHOTO_ERRORS=no
##PLOTS=no
##PRIOR=none
##PROBS=no
##PROBS2=no
##PROBS_LITE=LOS/SB2_B2004a_2.4z_Mags_1300.probs
##P_MIN=0.01
##SED_DIR=/home/lidenscheng/MK_DirectSim/SEDs/
##SPECTRA=SB2.list
##VERBOSE=yes
##ZC=None
##ZMAX=10.0
##ZMIN=0.01
##ZP_OFFSETS=0.0
##Z_THR=0
##
##Column information
##
# 1 ID
# 2 Z_B
# 3 Z_B_MIN
# 4 Z_B_MAX
# 5 T_B
# 6 ODDS    
# 7 Z_ML
# 8 T_ML
# 9 CHI-SQUARED
# 10 M_0
##
    1 2.360 2.031  2.689 1.000 1.00000 2.350 1.000      5.309  23.000
    2 2.370 2.040  2.700 1.000 1.00000 2.380 1.000      0.814  23.000
    3 2.450 2.112  2.788 1.000 1.00000 2.450 1.000      2.518  23.000
    4 2.440 2.103  2.777 1.000 1.00000 2.440 1.000      2.059  23.000
    5 2.530 2.184  2.876 1.000 1.00000 2.540 1.000      8.967  23.000
    6 2.440 2.103  2.777 1.000 1.00000 2.440 1.000      1.739  23.000
    7 2.620 2.265  2.975 1.000 1.00000 2.620 1.000     28.883  23.000
    8 2.560 2.211  2.909 1.000 1.00000 2.560 1.000     20.527  23.000
    9 2.410 2.076  2.744 1.000 1.00000 2.410 1.000      1.411  23.000
   10 2.460 2.121  2.799 1.000 1.00000 2.450 1.000      1.685  23.000
   11 2.370 2.040  2.700 1.000 1.00000 2.360 1.000      1.283  23.000
   12 2.440 2.103  2.777 1.000 1.00000 2.440 1.000      2.366  23.000
   13 2.410 2.076  2.744 1.000 1.00000 2.410 1.000      0.301  23.000
   14 2.530 2.184  2.876 1.000 1.00000 2.540 1.000      6.529  23.000
   15 2.460 2.121  2.799 1.000 1.00000 2.450 1.000      1.895  23.000
   16 2.380 2.049  2.711 1.000 1.00000 2.380 1.000      0.810  23.000
   17 2.380 2.049  2.711 1.000 1.00000 2.380 1.000      0.770  23.000
   18 2.540 2.193  2.887 1.000 1.00000 2.540 1.000     14.643  23.000
   19 2.350 2.022  2.678 1.000 1.00000 2.350 1.000      3.788  23.000
   20 2.450 2.112  2.788 1.000 1.00000 2.450 1.000      2.867  23.000
   21 2.470 2.130  2.810 1.000 1.00000 2.470 1.000      3.950  23.000
   22 2.490 2.148  2.832 1.000 1.00000 2.490 1.000      4.347  23.000
   23 2.420 2.085  2.755 1.000 1.00000 2.420 1.000      0.623  23.000
   24 2.370 2.040  2.700 1.000 1.00000 2.370 1.000      1.532  23.000
   25 2.390 2.058  2.722 1.000 1.00000 2.390 1.000      1.045  23.000
   26 2.400 2.067  2.733 1.000 1.00000 2.400 1.000      0.201  23.000
   27 2.390 2.058  2.722 1.000 1.00000 2.390 1.000      0.220  23.000
   28 2.390 2.058  2.722 1.000 1.00000 2.390 1.000      0.318  23.000
   29 2.420 2.085  2.755 1.000 1.00000 2.430 1.000      0.563  23.000
   30 2.460 2.121  2.799 1.000 1.00000 2.470 1.000      4.650  23.000
   31 2.350 2.022  2.678 1.000 1.00000 2.350 1.000      3.550  23.000
   32 2.610 2.256  2.964 1.000 1.00000 2.610 1.000     29.090  23.000
   33 2.340 2.013  2.667 1.000 1.00000 2.340 1.000      3.484  23.000
   34 2.560 2.211  2.909 1.000 1.00000 2.560 1.000     17.423  23.000
   35 2.490 2.148  2.832 1.000 1.00000 2.480 1.000     11.230  23.000
   36 2.380 2.049  2.711 1.000 1.00000 2.380 1.000      2.971  23.000
   37 2.430 2.094  2.766 1.000 1.00000 2.440 1.000      0.905  23.000
   38 2.480 2.139  2.821 1.000 1.00000 2.480 1.000      8.114  23.000
   39 2.430 2.094  2.766 1.000 1.00000 2.430 1.000      0.845  23.000
   40 2.470 2.130  2.810 1.000 1.00000 2.470 1.000      4.605  23.000
   41 2.440 2.103  2.777 1.000 1.00000 2.440 1.000      1.982  23.000
   42 2.430 2.094  2.766 1.000 1.00000 2.430 1.000      0.629  23.000
   43 2.540 2.193  2.887 1.000 1.00000 2.540 1.000      6.791  23.000
   44 2.440 2.103  2.777 1.000 1.00000 2.440 1.000      2.458  23.000
   45 2.380 2.049  2.711 1.000 1.00000 2.380 1.000      0.689  23.000
   46 2.430 2.094  2.766 1.000 1.00000 2.430 1.000      0.911  23.000
   47 2.490 2.148  2.832 1.000 1.00000 2.490 1.000     10.179  23.000
   48 2.370 2.040  2.700 1.000 1.00000 2.370 1.000      1.150  23.000
   49 2.620 2.265  2.975 1.000 1.00000 2.620 1.000     23.823  23.000
   50 2.440 2.103  2.777 1.000 1.00000 2.440 1.000      1.469  23.000
   51 2.400 2.067  2.733 1.000 1.00000 2.400 1.000      1.415  23.000
   52 2.460 2.121  2.799 1.000 1.00000 2.450 1.000      3.521  23.000
   53 2.460 2.121  2.799 1.000 1.00000 2.450 1.000      3.408  23.000
   54 2.380 2.049  2.711 1.000 1.00000 2.380 1.000      0.958  23.000
   55 2.430 2.094  2.766 1.000 1.00000 2.430 1.000      0.691  23.000
   56 2.360 2.031  2.689 1.000 1.00000 2.350 1.000      5.316  23.000
   57 2.420 2.085  2.755 1.000 1.00000 2.420 1.000      0.763  23.000
   58 2.470 2.130  2.810 1.000 1.00000 2.470 1.000      5.785  23.000
   59 2.400 2.067  2.733 1.000 1.00000 2.400 1.000      0.285  23.000
   60 2.570 2.220  2.920 1.000 1.00000 2.570 1.000     24.534  23.000
   61 2.410 2.076  2.744 1.000 1.00000 2.410 1.000      0.506  23.000
   62 2.460 2.121  2.799 1.000 1.00000 2.450 1.000      3.018  23.000
   63 2.460 2.121  2.799 1.000 1.00000 2.470 1.000      2.279  23.000
   64 2.450 2.112  2.788 1.000 1.00000 2.450 1.000      2.591  23.000
   65 2.330 2.004  2.656 1.000 1.00000 2.330 1.000     17.558  23.000
   66 2.530 2.184  2.876 1.000 1.00000 2.530 1.000      8.121  23.000
   67 2.450 2.112  2.788 1.000 1.00000 2.450 1.000      2.105  23.000
   68 2.380 2.049  2.711 1.000 1.00000 2.380 1.000      0.512  23.000
   69 2.420 2.085  2.755 1.000 1.00000 2.410 1.000      1.658  23.000
   70 2.560 2.211  2.909 1.000 1.00000 2.560 1.000     21.716  23.000
   71 2.540 2.193  2.887 1.000 1.00000 2.540 1.000     16.428  23.000
   72 2.430 2.094  2.766 1.000 1.00000 2.440 1.000      1.158  23.000
   73 2.430 2.094  2.766 1.000 1.00000 2.440 1.000      0.858  23.000
   74 2.460 2.121  2.799 1.000 1.00000 2.470 1.000      3.369  23.000
   75 2.580 2.229  2.931 1.000 1.00000 2.580 1.000     15.818  23.000
   76 2.400 2.067  2.733 1.000 1.00000 2.400 1.000      0.319  23.000
   77 2.440 2.103  2.777 1.000 1.00000 2.440 1.000      1.811  23.000
   78 2.570 2.220  2.920 1.000 1.00000 2.570 1.000     19.385  23.000
   79 2.540 2.193  2.887 1.000 1.00000 2.540 1.000      7.483  23.000
   80 2.430 2.094  2.766 1.000 1.00000 2.430 1.000      0.605  23.000
   81 2.480 2.139  2.821 1.000 1.00000 2.480 1.000      6.850  23.000
   82 2.450 2.112  2.788 1.000 1.00000 2.450 1.000      3.356  23.000
   83 2.470 2.130  2.810 1.000 1.00000 2.470 1.000      2.814  23.000
   84 2.540 2.193  2.887 1.000 1.00000 2.540 1.000     12.902  23.000
   85 2.600 2.247  2.953 1.000 1.00000 2.590 1.000     20.666  23.000
   86 2.490 2.148  2.832 1.000 1.00000 2.490 1.000      5.513  23.000
   87 2.490 2.148  2.832 1.000 1.00000 2.480 1.000      9.521  23.000
   88 2.360 2.031  2.689 1.000 1.00000 2.350 1.000      2.799  23.000
   89 2.360 2.031  2.689 1.000 1.00000 2.350 1.000      2.705  23.000
   90 2.540 2.193  2.887 1.000 1.00000 2.540 1.000     14.348  23.000
   91 2.490 2.148  2.832 1.000 1.00000 2.480 1.000      5.975  23.000
   92 2.540 2.193  2.887 1.000 1.00000 2.540 1.000     14.188  23.000
   93 2.420 2.085  2.755 1.000 1.00000 2.430 1.000      0.565  23.000
   94 2.540 2.193  2.887 1.000 1.00000 2.540 1.000     15.615  23.000
   95 2.480 2.139  2.821 1.000 1.00000 2.480 1.000      3.924  23.000
   96 2.450 2.112  2.788 1.000 1.00000 2.450 1.000      1.909  23.000
   97 2.350 2.022  2.678 1.000 1.00000 2.350 1.000      7.464  23.000
   98 2.450 2.112  2.788 1.000 1.00000 2.450 1.000      2.060  23.000
   99 2.560 2.211  2.909 1.000 1.00000 2.560 1.000     19.583  23.000
  100 2.360 2.031  2.689 1.000 1.00000 2.360 1.000      2.356  23.000
  101 2.410 2.076  2.744 1.000 1.00000 2.410 1.000      0.457  23.000
  102 2.540 2.193  2.887 1.000 1.00000 2.540 1.000     13.264  23.000
  103 2.450 2.112  2.788 1.000 1.00000 2.450 1.000      4.268  23.000
  104 2.410 2.076  2.744 1.000 1.00000 2.410 1.000      0.331  23.000
  105 2.580 2.229  2.931 1.000 1.00000 2.580 1.000     22.259  23.000
  106 2.450 2.112  2.788 1.000 1.00000 2.440 1.000      4.029  23.000
  107 2.390 2.058  2.722 1.000 1.00000 2.390 1.000      0.451  23.000
  108 2.350 2.022  2.678 1.000 1.00000 2.350 1.000      4.867  23.000
  109 2.440 2.103  2.777 1.000 1.00000 2.440 1.000      1.857  23.000
  110 2.540 2.193  2.887 1.000 1.00000 2.540 1.000      8.862  23.000
  111 2.470 2.130  2.810 1.000 1.00000 2.470 1.000      6.480  23.000
  112 2.350 2.022  2.678 1.000 1.00000 2.350 1.000      6.895  23.000
  113 2.470 2.130  2.810 1.000 1.00000 2.470 1.000      4.572  23.000
  114 2.540 2.193  2.887 1.000 1.00000 2.540 1.000     16.014  23.000
  115 2.400 2.067  2.733 1.000 1.00000 2.400 1.000      1.026  23.000
  116 2.440 2.103  2.777 1.000 1.00000 2.440 1.000      1.124  23.000
  117 2.440 2.103  2.777 1.000 1.00000 2.440 1.000      2.973  23.000
  118 2.430 2.094  2.766 1.000 1.00000 2.440 1.000      1.045  23.000
  119 2.450 2.112  2.788 1.000 1.00000 2.450 1.000      1.149  23.000
  120 2.540 2.193  2.887 1.000 1.00000 2.540 1.000      8.915  23.000
  121 2.380 2.049  2.711 1.000 1.00000 2.380 1.000      2.015  23.000
  122 2.370 2.040  2.700 1.000 1.00000 2.360 1.000      2.162  23.000
  123 2.540 2.193  2.887 1.000 1.00000 2.540 1.000      8.346  23.000
  124 2.540 2.193  2.887 1.000 1.00000 2.540 1.000     15.838  23.000
  125 2.430 2.094  2.766 1.000 1.00000 2.440 1.000      1.057  23.000
  126 2.480 2.139  2.821 1.000 1.00000 2.480 1.000      7.962  23.000
  127 2.490 2.148  2.832 1.000 1.00000 2.480 1.000      5.925  23.000
  128 2.340 2.013  2.667 1.000 1.00000 2.340 1.000      7.175  23.000
  129 2.420 2.085  2.755 1.000 1.00000 2.410 1.000      0.923  23.000
  130 2.370 2.040  2.700 1.000 1.00000 2.360 1.000      1.858  23.000
  131 2.430 2.094  2.766 1.000 1.00000 2.440 1.000      0.817  23.000
  132 2.490 2.148  2.832 1.000 1.00000 2.480 1.000      8.469  23.000
  133 2.470 2.130  2.810 1.000 1.00000 2.470 1.000      4.104  23.000
  134 2.530 2.184  2.876 1.000 1.00000 2.530 1.000     12.838  23.000
  135 2.410 2.076  2.744 1.000 1.00000 2.410 1.000      0.361  23.000
  136 2.430 2.094  2.766 1.000 1.00000 2.430 1.000      1.488  23.000
  137 2.460 2.121  2.799 1.000 1.00000 2.450 1.000      5.164  23.000
  138 2.420 2.085  2.755 1.000 1.00000 2.430 1.000      1.084  23.000
  139 2.540 2.193  2.887 1.000 1.00000 2.540 1.000      6.560  23.000
  140 2.420 2.085  2.755 1.000 1.00000 2.420 1.000      0.811  23.000
  141 2.380 2.049  2.711 1.000 1.00000 2.380 1.000      1.065  23.000
  142 2.340 2.013  2.667 1.000 1.00000 2.340 1.000      5.343  23.000
  143 2.450 2.112  2.788 1.000 1.00000 2.450 1.000      1.786  23.000
  144 2.450 2.112  2.788 1.000 1.00000 2.450 1.000      2.490  23.000
  145 2.400 2.067  2.733 1.000 1.00000 2.400 1.000      0.353  23.000
  146 2.410 2.076  2.744 1.000 1.00000 2.410 1.000      1.182  23.000
  147 2.550 2.202  2.898 1.000 1.00000 2.550 1.000     16.507  23.000
  148 2.460 2.121  2.799 1.000 1.00000 2.450 1.000      3.051  23.000
  149 2.390 2.058  2.722 1.000 1.00000 2.390 1.000      0.415  23.000
  150 2.470 2.130  2.810 1.000 1.00000 2.470 1.000      2.401  23.000
  151 2.380 2.049  2.711 1.000 1.00000 2.380 1.000      0.774  23.000
  152 2.390 2.058  2.722 1.000 1.00000 2.390 1.000      0.219  23.000
  153 2.340 2.013  2.667 1.000 1.00000 2.340 1.000      7.450  23.000
  154 2.410 2.076  2.744 1.000 1.00000 2.410 1.000      0.432  23.000
  155 2.560 2.211  2.909 1.000 1.00000 2.550 1.000     20.831  23.000
  156 2.400 2.067  2.733 1.000 1.00000 2.400 1.000      0.572  23.000
  157 2.500 2.157  2.843 1.000 1.00000 2.490 1.000      9.306  23.000
  158 2.440 2.103  2.777 1.000 1.00000 2.440 1.000      1.433  23.000
  159 2.460 2.121  2.799 1.000 1.00000 2.450 1.000      3.108  23.000
  160 2.350 2.022  2.678 1.000 1.00000 2.350 1.000      2.986  23.000
  161 2.450 2.112  2.788 1.000 1.00000 2.450 1.000      3.144  23.000
  162 2.360 2.031  2.689 1.000 1.00000 2.360 1.000      1.438  23.000
  163 2.490 2.148  2.832 1.000 1.00000 2.490 1.000      7.692  23.000
  164 2.460 2.121  2.799 1.000 1.00000 2.450 1.000      1.756  23.000
  165 2.430 2.094  2.766 1.000 1.00000 2.430 1.000      0.623  23.000
  166 2.350 2.022  2.678 1.000 1.00000 2.350 1.000      3.499  23.000
  167 2.480 2.139  2.821 1.000 1.00000 2.480 1.000      5.465  23.000
  168 2.570 2.220  2.920 1.000 1.00000 2.570 1.000     13.864  23.000
  169 2.390 2.058  2.722 1.000 1.00000 2.390 1.000      0.276  23.000
  170 2.560 2.211  2.909 1.000 1.00000 2.570 1.000     24.064  23.000
  171 2.380 2.049  2.711 1.000 1.00000 2.380 1.000      0.701  23.000
  172 2.380 2.049  2.711 1.000 1.00000 2.380 1.000      0.880  23.000
  173 2.420 2.085  2.755 1.000 1.00000 2.410 1.000      0.506  23.000
  174 2.360 2.031  2.689 1.000 1.00000 2.360 1.000      2.829  23.000
  175 2.450 2.112  2.788 1.000 1.00000 2.450 1.000      1.754  23.000
  176 2.450 2.112  2.788 1.000 1.00000 2.450 1.000      3.124  23.000
  177 2.440 2.103  2.777 1.000 1.00000 2.440 1.000      1.998  23.000
  178 2.470 2.130  2.810 1.000 1.00000 2.470 1.000      7.489  23.000
  179 2.610 2.256  2.964 1.000 1.00000 2.610 1.000     16.882  23.000
  180 2.450 2.112  2.788 1.000 1.00000 2.450 1.000      1.736  23.000
  181 2.470 2.130  2.810 1.000 1.00000 2.470 1.000      6.373  23.000
  182 2.450 2.112  2.788 1.000 1.00000 2.450 1.000      1.196  23.000
  183 2.490 2.148  2.832 1.000 1.00000 2.480 1.000      8.247  23.000
  184 2.450 2.112  2.788 1.000 1.00000 2.450 1.000      1.511  23.000
  185 2.410 2.076  2.744 1.000 1.00000 2.410 1.000      0.396  23.000
  186 2.370 2.040  2.700 1.000 1.00000 2.370 1.000      1.020  23.000
  187 2.540 2.193  2.887 1.000 1.00000 2.540 1.000     13.274  23.000
  188 2.460 2.121  2.799 1.000 1.00000 2.450 1.000      2.224  23.000
  189 2.430 2.094  2.766 1.000 1.00000 2.430 1.000      0.879  23.000
  190 2.540 2.193  2.887 1.000 1.00000 2.540 1.000      9.104  23.000
  191 2.410 2.076  2.744 1.000 1.00000 2.410 1.000      1.620  23.000
  192 2.480 2.139  2.821 1.000 1.00000 2.480 1.000      5.095  23.000
  193 2.390 2.058  2.722 1.000 1.00000 2.390 1.000      0.387  23.000
  194 2.590 2.238  2.942 1.000 1.00000 2.590 1.000     19.843  23.000
  195 2.480 2.139  2.821 1.000 1.00000 2.480 1.000      8.867  23.000
  196 2.350 2.022  2.678 1.000 1.00000 2.350 1.000      5.569  23.000
  197 2.470 2.130  2.810 1.000 1.00000 2.470 1.000      2.649  23.000
  198 2.380 2.049  2.711 1.000 1.00000 2.380 1.000      0.527  23.000
  199 2.530 2.184  2.876 1.000 1.00000 2.540 1.000     10.692  23.000
  200 2.440 2.103  2.777 1.000 1.00000 2.440 1.000      4.565  23.000
  201 2.360 2.031  2.689 1.000 1.00000 2.360 1.000      1.213  23.000
  202 2.450 2.112  2.788 1.000 1.00000 2.450 1.000      1.631  23.000
  203 2.540 2.193  2.887 1.000 1.00000 2.540 1.000      9.916  23.000
  204 2.340 2.013  2.667 1.000 1.00000 2.340 1.000      5.356  23.000
  205 2.390 2.058  2.722 1.000 1.00000 2.390 1.000      0.672  23.000
  206 2.540 2.193  2.887 1.000 1.00000 2.540 1.000     10.350  23.000
  207 2.540 2.193  2.887 1.000 1.00000 2.540 1.000      7.966  23.000
  208 2.420 2.085  2.755 1.000 1.00000 2.430 1.000      0.659  23.000
  209 2.540 2.193  2.887 1.000 1.00000 2.540 1.000     13.750  23.000
  210 2.390 2.058  2.722 1.000 1.00000 2.390 1.000      0.216  23.000
  211 2.540 2.193  2.887 1.000 1.00000 2.540 1.000     12.049  23.000
  212 2.400 2.067  2.733 1.000 1.00000 2.400 1.000      0.249  23.000
  213 2.380 2.049  2.711 1.000 1.00000 2.380 1.000      0.673  23.000
  214 2.540 2.193  2.887 1.000 1.00000 2.540 1.000     17.002  23.000
  215 2.390 2.058  2.722 1.000 1.00000 2.390 1.000      2.055  23.000
  216 2.560 2.211  2.909 1.000 1.00000 2.560 1.000     13.208  23.000
  217 2.540 2.193  2.887 1.000 1.00000 2.540 1.000     12.176  23.000
  218 2.450 2.112  2.788 1.000 1.00000 2.450 1.000      2.905  23.000
  219 2.470 2.130  2.810 1.000 1.00000 2.470 1.000      6.213  23.000
  220 2.370 2.040  2.700 1.000 1.00000 2.360 1.000      3.162  23.000
  221 2.480 2.139  2.821 1.000 1.00000 2.480 1.000      5.184  23.000
  222 2.420 2.085  2.755 1.000 1.00000 2.430 1.000      0.638  23.000
  223 2.470 2.130  2.810 1.000 1.00000 2.470 1.000      6.568  23.000
  224 2.560 2.211  2.909 1.000 1.00000 2.570 1.000     11.282  23.000
  225 2.480 2.139  2.821 1.000 1.00000 2.480 1.000      8.640  23.000
  226 2.380 2.049  2.711 1.000 1.00000 2.380 1.000      1.137  23.000
  227 2.430 2.094  2.766 1.000 1.00000 2.440 1.000      1.038  23.000
  228 2.420 2.085  2.755 1.000 1.00000 2.430 1.000      0.690  23.000
  229 2.460 2.121  2.799 1.000 1.00000 2.470 1.000      6.873  23.000
  230 2.590 2.238  2.942 1.000 1.00000 2.590 1.000     21.832  23.000
  231 2.420 2.085  2.755 1.000 1.00000 2.430 1.000      0.728  23.000
  232 2.390 2.058  2.722 1.000 1.00000 2.390 1.000      0.334  23.000
  233 2.360 2.031  2.689 1.000 1.00000 2.350 1.000      3.818  23.000
  234 2.550 2.202  2.898 1.000 1.00000 2.550 1.000      8.618  23.000
  235 2.540 2.193  2.887 1.000 1.00000 2.540 1.000     10.060  23.000
  236 2.520 2.175  2.865 1.000 1.00000 2.530 1.000     10.831  23.000
  237 2.430 2.094  2.766 1.000 1.00000 2.430 1.000      0.737  23.000
  238 2.450 2.112  2.788 1.000 1.00000 2.450 1.000      2.462  23.000
  239 2.440 2.103  2.777 1.000 1.00000 2.440 1.000      1.975  23.000
  240 2.400 2.067  2.733 1.000 1.00000 2.400 1.000      0.238  23.000
  241 2.470 2.130  2.810 1.000 1.00000 2.470 1.000      5.178  23.000
  242 2.480 2.139  2.821 1.000 1.00000 2.480 1.000      2.616  23.000
  243 2.430 2.094  2.766 1.000 1.00000 2.430 1.000      0.810  23.000
  244 2.440 2.103  2.777 1.000 1.00000 2.440 1.000      1.697  23.000
  245 2.570 2.220  2.920 1.000 1.00000 2.570 1.000     24.267  23.000
  246 2.480 2.139  2.821 1.000 1.00000 2.480 1.000      4.888  23.000
  247 2.440 2.103  2.777 1.000 1.00000 2.440 1.000      1.057  23.000
  248 2.340 2.013  2.667 1.000 1.00000 2.340 1.000      4.002  23.000
  249 2.540 2.193  2.887 1.000 1.00000 2.540 1.000     10.068  23.000
  250 2.480 2.139  2.821 1.000 1.00000 2.480 1.000      8.785  23.000
  251 2.340 2.013  2.667 1.000 1.00000 2.340 1.000      7.999  23.000
  252 2.430 2.094  2.766 1.000 1.00000 2.440 1.000      0.922  23.000
  253 2.390 2.058  2.722 1.000 1.00000 2.390 1.000      2.804  23.000
  254 2.460 2.121  2.799 1.000 1.00000 2.450 1.000      2.602  23.000
  255 2.440 2.103  2.777 1.000 1.00000 2.440 1.000      2.519  23.000
  256 2.440 2.103  2.777 1.000 1.00000 2.440 1.000      2.515  23.000
  257 2.460 2.121  2.799 1.000 1.00000 2.450 1.000      4.001  23.000
  258 2.370 2.040  2.700 1.000 1.00000 2.380 1.000      0.781  23.000
  259 2.450 2.112  2.788 1.000 1.00000 2.450 1.000      2.521  23.000
  260 2.580 2.229  2.931 1.000 1.00000 2.580 1.000     25.481  23.000
  261 2.540 2.193  2.887 1.000 1.00000 2.540 1.000     10.736  23.000
  262 2.370 2.040  2.700 1.000 1.00000 2.360 1.000      2.234  23.000
  263 2.470 2.130  2.810 1.000 1.00000 2.470 1.000      3.783  23.000
  264 2.490 2.148  2.832 1.000 1.00000 2.480 1.000      9.101  23.000
  265 2.530 2.184  2.876 1.000 1.00000 2.530 1.000     11.333  23.000
  266 2.350 2.022  2.678 1.000 1.00000 2.340 1.000      3.650  23.000
  267 2.350 2.022  2.678 1.000 1.00000 2.350 1.000      2.959  23.000
  268 2.480 2.139  2.821 1.000 1.00000 2.480 1.000      5.894  23.000
  269 2.400 2.067  2.733 1.000 1.00000 2.400 1.000      0.239  23.000
