## File LOS/SB2_B2004a_1.8z_Mags_1400.bpz  Sat Aug 13 01:33:39 2016
##
##Parameters used to run BPZ:
##
##AB_DIR=/home/lidenscheng/bpz-1.99.3//AB/
##ADD_CONTINUOUS_PROB=None
##ADD_SPEC_PROB=None
##CHECK=LOS/SB2_B2004a_1.8z_Mags_1400.flux_comparison
##COLOR=no
##COLUMNS=losNoErrors.columns
##CONVOLVE_P=yes
##DELTA_M_0=0.0
##DZ=0.01
##EXCLUDE=none
##FC=None
##FILTER_DIR=/home/lidenscheng/MK_DirectSim/filters/
##GET_Z=yes
##INPUT=LOS/SB2_B2004a_1.8z_Mags_1400.txt
##INTERACTIVE=yes
##INTERP=0
##MADAU=no
##MAG=yes
##MEAN_IGM=yes
##MERGE_PEAKS=no
##MIN_MAGERR=0.001
##MIN_RMS=0.05
##NEW_AB=no
##NMAX=None
##NTYPES=None
##N_PEAKS=1
##ODDS=0.95
##ONLY_TYPE=no
##OUTPUT=LOS/SB2_B2004a_1.8z_Mags_1400.bpz
##PHOTO_ERRORS=no
##PLOTS=no
##PRIOR=none
##PROBS=no
##PROBS2=no
##PROBS_LITE=LOS/SB2_B2004a_1.8z_Mags_1400.probs
##P_MIN=0.01
##SED_DIR=/home/lidenscheng/MK_DirectSim/SEDs/
##SPECTRA=SB2.list
##VERBOSE=yes
##ZC=None
##ZMAX=10.0
##ZMIN=0.01
##ZP_OFFSETS=0.0
##Z_THR=0
##
##Column information
##
# 1 ID
# 2 Z_B
# 3 Z_B_MIN
# 4 Z_B_MAX
# 5 T_B
# 6 ODDS    
# 7 Z_ML
# 8 T_ML
# 9 CHI-SQUARED
# 10 M_0
##
    1 1.850 1.571  2.129 1.000 1.00000 1.850 1.000      2.276  23.000
    2 1.860 1.580  2.140 1.000 1.00000 1.850 1.000      2.282  23.000
    3 1.860 1.580  2.140 1.000 1.00000 1.850 1.000      2.566  23.000
    4 1.860 1.580  2.140 1.000 1.00000 1.850 1.000      2.351  23.000
    5 1.890 1.607  2.173 1.000 1.00000 1.890 1.000     36.537  23.000
    6 1.860 1.580  2.140 1.000 1.00000 1.850 1.000      2.896  23.000
    7 1.850 1.571  2.129 1.000 1.00000 1.850 1.000      2.276  23.000
    8 1.850 1.571  2.129 1.000 1.00000 1.850 1.000      2.479  23.000
    9 1.860 1.580  2.140 1.000 1.00000 1.850 1.000      3.302  23.000
   10 1.850 1.571  2.129 1.000 1.00000 1.850 1.000      2.396  23.000
   11 1.860 1.580  2.140 1.000 1.00000 1.850 1.000      4.868  23.000
   12 1.860 1.580  2.140 1.000 1.00000 1.850 1.000      2.583  23.000
   13 1.860 1.580  2.140 1.000 1.00000 1.850 1.000      2.327  23.000
   14 1.860 1.580  2.140 1.000 1.00000 1.850 1.000      4.842  23.000
   15 1.890 1.607  2.173 1.000 1.00000 1.890 1.000     27.661  23.000
   16 1.850 1.571  2.129 1.000 1.00000 1.850 1.000      2.276  23.000
   17 1.860 1.580  2.140 1.000 1.00000 1.850 1.000      2.316  23.000
   18 1.860 1.580  2.140 1.000 1.00000 1.860 1.000      5.928  23.000
   19 1.880 1.598  2.162 1.000 1.00000 1.880 1.000     10.535  23.000
   20 1.850 1.571  2.129 1.000 1.00000 1.850 1.000      2.479  23.000
   21 1.860 1.580  2.140 1.000 1.00000 1.850 1.000      2.279  23.000
   22 1.870 1.589  2.151 1.000 1.00000 1.880 1.000      9.502  23.000
   23 1.880 1.598  2.162 1.000 1.00000 1.880 1.000     14.144  23.000
   24 1.850 1.571  2.129 1.000 1.00000 1.850 1.000      2.308  23.000
   25 1.860 1.580  2.140 1.000 1.00000 1.860 1.000      5.547  23.000
   26 1.850 1.571  2.129 1.000 1.00000 1.850 1.000      2.275  23.000
   27 1.860 1.580  2.140 1.000 1.00000 1.850 1.000      3.419  23.000
   28 1.850 1.571  2.129 1.000 1.00000 1.850 1.000      2.592  23.000
   29 1.870 1.589  2.151 1.000 1.00000 1.880 1.000      8.267  23.000
   30 1.850 1.571  2.129 1.000 1.00000 1.850 1.000      2.284  23.000
   31 1.850 1.571  2.129 1.000 1.00000 1.850 1.000      2.297  23.000
   32 1.860 1.580  2.140 1.000 1.00000 1.860 1.000      5.662  23.000
   33 1.880 1.598  2.162 1.000 1.00000 1.880 1.000     12.124  23.000
   34 1.860 1.580  2.140 1.000 1.00000 1.850 1.000      2.280  23.000
   35 1.860 1.580  2.140 1.000 1.00000 1.850 1.000      3.507  23.000
   36 1.860 1.580  2.140 1.000 1.00000 1.860 1.000      5.898  23.000
   37 1.860 1.580  2.140 1.000 1.00000 1.860 1.000      5.296  23.000
   38 1.860 1.580  2.140 1.000 1.00000 1.850 1.000      4.565  23.000
   39 1.860 1.580  2.140 1.000 1.00000 1.850 1.000      4.327  23.000
   40 1.860 1.580  2.140 1.000 1.00000 1.850 1.000      2.471  23.000
   41 1.860 1.580  2.140 1.000 1.00000 1.850 1.000      2.471  23.000
   42 1.850 1.571  2.129 1.000 1.00000 1.850 1.000      2.566  23.000
   43 1.860 1.580  2.140 1.000 1.00000 1.860 1.000      5.988  23.000
   44 1.860 1.580  2.140 1.000 1.00000 1.850 1.000      2.407  23.000
   45 1.850 1.571  2.129 1.000 1.00000 1.850 1.000      2.331  23.000
   46 1.860 1.580  2.140 1.000 1.00000 1.850 1.000      2.310  23.000
   47 1.850 1.571  2.129 1.000 1.00000 1.850 1.000      2.343  23.000
   48 1.850 1.571  2.129 1.000 1.00000 1.850 1.000      2.380  23.000
   49 1.880 1.598  2.162 1.000 1.00000 1.880 1.000     11.934  23.000
   50 1.870 1.589  2.151 1.000 1.00000 1.880 1.000      7.820  23.000
   51 1.850 1.571  2.129 1.000 1.00000 1.850 1.000      2.275  23.000
   52 1.850 1.571  2.129 1.000 1.00000 1.850 1.000      2.868  23.000
   53 1.860 1.580  2.140 1.000 1.00000 1.850 1.000      2.395  23.000
   54 1.850 1.571  2.129 1.000 1.00000 1.850 1.000      2.276  23.000
   55 1.860 1.580  2.140 1.000 1.00000 1.850 1.000      2.355  23.000
   56 1.870 1.589  2.151 1.000 1.00000 1.880 1.000      8.092  23.000
   57 1.870 1.589  2.151 1.000 1.00000 1.880 1.000      7.116  23.000
   58 1.850 1.571  2.129 1.000 1.00000 1.850 1.000      2.380  23.000
   59 1.850 1.571  2.129 1.000 1.00000 1.850 1.000      2.343  23.000
   60 1.850 1.571  2.129 1.000 1.00000 1.850 1.000      2.719  23.000
   61 1.870 1.589  2.151 1.000 1.00000 1.880 1.000      7.365  23.000
   62 1.850 1.571  2.129 1.000 1.00000 1.850 1.000      2.414  23.000
   63 1.860 1.580  2.140 1.000 1.00000 1.850 1.000      2.299  23.000
   64 1.850 1.571  2.129 1.000 1.00000 1.850 1.000      2.408  23.000
   65 1.860 1.580  2.140 1.000 1.00000 1.850 1.000      3.830  23.000
   66 1.850 1.571  2.129 1.000 1.00000 1.850 1.000      2.402  23.000
   67 1.880 1.598  2.162 1.000 1.00000 1.880 1.000     15.575  23.000
   68 1.860 1.580  2.140 1.000 1.00000 1.850 1.000      3.002  23.000
   69 1.860 1.580  2.140 1.000 1.00000 1.850 1.000      4.974  23.000
   70 1.850 1.571  2.129 1.000 1.00000 1.850 1.000      3.051  23.000
   71 1.850 1.571  2.129 1.000 1.00000 1.850 1.000      2.278  23.000
   72 1.860 1.580  2.140 1.000 1.00000 1.850 1.000      2.425  23.000
   73 1.850 1.571  2.129 1.000 1.00000 1.850 1.000      2.592  23.000
   74 1.850 1.571  2.129 1.000 1.00000 1.850 1.000      2.396  23.000
   75 1.860 1.580  2.140 1.000 1.00000 1.850 1.000      3.130  23.000
   76 1.860 1.580  2.140 1.000 1.00000 1.850 1.000      2.754  23.000
   77 1.850 1.571  2.129 1.000 1.00000 1.850 1.000      2.880  23.000
   78 1.860 1.580  2.140 1.000 1.00000 1.850 1.000      2.364  23.000
   79 1.850 1.571  2.129 1.000 1.00000 1.850 1.000      2.287  23.000
   80 1.880 1.598  2.162 1.000 1.00000 1.880 1.000     16.325  23.000
   81 1.860 1.580  2.140 1.000 1.00000 1.850 1.000      4.304  23.000
   82 1.860 1.580  2.140 1.000 1.00000 1.850 1.000      3.472  23.000
   83 1.860 1.580  2.140 1.000 1.00000 1.850 1.000      2.611  23.000
   84 1.880 1.598  2.162 1.000 1.00000 1.880 1.000     12.956  23.000
   85 1.850 1.571  2.129 1.000 1.00000 1.850 1.000      2.278  23.000
   86 1.880 1.598  2.162 1.000 1.00000 1.880 1.000     14.738  23.000
   87 1.850 1.571  2.129 1.000 1.00000 1.850 1.000      2.352  23.000
   88 1.850 1.571  2.129 1.000 1.00000 1.850 1.000      2.486  23.000
   89 1.850 1.571  2.129 1.000 1.00000 1.850 1.000      2.295  23.000
   90 1.850 1.571  2.129 1.000 1.00000 1.850 1.000      2.445  23.000
   91 1.880 1.598  2.162 1.000 1.00000 1.880 1.000     11.746  23.000
   92 1.860 1.580  2.140 1.000 1.00000 1.850 1.000      2.457  23.000
   93 1.860 1.580  2.140 1.000 1.00000 1.850 1.000      2.431  23.000
   94 1.860 1.580  2.140 1.000 1.00000 1.850 1.000      2.743  23.000
   95 1.850 1.571  2.129 1.000 1.00000 1.850 1.000      2.601  23.000
   96 1.860 1.580  2.140 1.000 1.00000 1.850 1.000      2.464  23.000
   97 1.850 1.571  2.129 1.000 1.00000 1.850 1.000      2.275  23.000
   98 1.860 1.580  2.140 1.000 1.00000 1.850 1.000      4.715  23.000
   99 1.860 1.580  2.140 1.000 1.00000 1.850 1.000      2.884  23.000
  100 1.860 1.580  2.140 1.000 1.00000 1.850 1.000      5.000  23.000
  101 1.870 1.589  2.151 1.000 1.00000 1.880 1.000      7.654  23.000
  102 1.850 1.571  2.129 1.000 1.00000 1.850 1.000      2.347  23.000
  103 1.880 1.598  2.162 1.000 1.00000 1.880 1.000     12.806  23.000
  104 1.850 1.571  2.129 1.000 1.00000 1.850 1.000      2.335  23.000
  105 1.860 1.580  2.140 1.000 1.00000 1.850 1.000      3.437  23.000
  106 1.860 1.580  2.140 1.000 1.00000 1.850 1.000      4.016  23.000
  107 1.850 1.571  2.129 1.000 1.00000 1.850 1.000      2.275  23.000
  108 1.850 1.571  2.129 1.000 1.00000 1.850 1.000      2.317  23.000
  109 1.870 1.589  2.151 1.000 1.00000 1.880 1.000      8.267  23.000
  110 1.860 1.580  2.140 1.000 1.00000 1.850 1.000      3.974  23.000
  111 1.860 1.580  2.140 1.000 1.00000 1.850 1.000      2.679  23.000
  112 1.850 1.571  2.129 1.000 1.00000 1.850 1.000      2.282  23.000
  113 1.860 1.580  2.140 1.000 1.00000 1.850 1.000      3.238  23.000
  114 1.860 1.580  2.140 1.000 1.00000 1.850 1.000      2.285  23.000
  115 1.850 1.571  2.129 1.000 1.00000 1.850 1.000      2.426  23.000
  116 1.860 1.580  2.140 1.000 1.00000 1.850 1.000      4.921  23.000
  117 1.860 1.580  2.140 1.000 1.00000 1.850 1.000      2.508  23.000
  118 1.850 1.571  2.129 1.000 1.00000 1.850 1.000      2.420  23.000
  119 1.850 1.571  2.129 1.000 1.00000 1.850 1.000      2.709  23.000
  120 1.850 1.571  2.129 1.000 1.00000 1.850 1.000      2.275  23.000
  121 1.870 1.589  2.151 1.000 1.00000 1.880 1.000      8.196  23.000
  122 1.860 1.580  2.140 1.000 1.00000 1.850 1.000      2.327  23.000
  123 1.860 1.580  2.140 1.000 1.00000 1.860 1.000      5.434  23.000
  124 1.860 1.580  2.140 1.000 1.00000 1.850 1.000      3.974  23.000
  125 1.860 1.580  2.140 1.000 1.00000 1.860 1.000      5.490  23.000
  126 1.860 1.580  2.140 1.000 1.00000 1.850 1.000      4.590  23.000
  127 1.850 1.571  2.129 1.000 1.00000 1.850 1.000      2.282  23.000
  128 1.860 1.580  2.140 1.000 1.00000 1.860 1.000      6.525  23.000
  129 1.860 1.580  2.140 1.000 1.00000 1.850 1.000      2.948  23.000
  130 1.860 1.580  2.140 1.000 1.00000 1.850 1.000      2.323  23.000
  131 1.860 1.580  2.140 1.000 1.00000 1.850 1.000      2.451  23.000
  132 1.850 1.571  2.129 1.000 1.00000 1.850 1.000      2.276  23.000
  133 1.850 1.571  2.129 1.000 1.00000 1.850 1.000      2.668  23.000
  134 1.860 1.580  2.140 1.000 1.00000 1.850 1.000      2.304  23.000
  135 1.850 1.571  2.129 1.000 1.00000 1.850 1.000      2.396  23.000
  136 1.850 1.571  2.129 1.000 1.00000 1.850 1.000      2.295  23.000
  137 1.860 1.580  2.140 1.000 1.00000 1.850 1.000      4.541  23.000
  138 1.860 1.580  2.140 1.000 1.00000 1.850 1.000      3.673  23.000
  139 1.870 1.589  2.151 1.000 1.00000 1.880 1.000      7.524  23.000
  140 1.850 1.571  2.129 1.000 1.00000 1.850 1.000      2.549  23.000
  141 1.850 1.571  2.129 1.000 1.00000 1.850 1.000      2.688  23.000
  142 1.850 1.571  2.129 1.000 1.00000 1.850 1.000      2.752  23.000
  143 1.860 1.580  2.140 1.000 1.00000 1.850 1.000      2.532  23.000
  144 1.860 1.580  2.140 1.000 1.00000 1.860 1.000      5.547  23.000
  145 1.850 1.571  2.129 1.000 1.00000 1.850 1.000      2.275  23.000
  146 1.860 1.580  2.140 1.000 1.00000 1.860 1.000      5.215  23.000
  147 1.880 1.598  2.162 1.000 1.00000 1.880 1.000     10.840  23.000
  148 1.860 1.580  2.140 1.000 1.00000 1.850 1.000      2.532  23.000
  149 1.850 1.571  2.129 1.000 1.00000 1.850 1.000      2.557  23.000
  150 1.880 1.598  2.162 1.000 1.00000 1.880 1.000     10.449  23.000
  151 1.860 1.580  2.140 1.000 1.00000 1.850 1.000      3.402  23.000
  152 1.880 1.598  2.162 1.000 1.00000 1.880 1.000     13.619  23.000
  153 1.850 1.571  2.129 1.000 1.00000 1.850 1.000      2.648  23.000
  154 1.860 1.580  2.140 1.000 1.00000 1.850 1.000      4.125  23.000
  155 1.860 1.580  2.140 1.000 1.00000 1.850 1.000      3.302  23.000
  156 1.850 1.571  2.129 1.000 1.00000 1.850 1.000      2.276  23.000
  157 1.860 1.580  2.140 1.000 1.00000 1.850 1.000      2.471  23.000
  158 1.850 1.571  2.129 1.000 1.00000 1.850 1.000      2.356  23.000
  159 1.850 1.571  2.129 1.000 1.00000 1.850 1.000      2.832  23.000
  160 1.850 1.571  2.129 1.000 1.00000 1.850 1.000      2.317  23.000
  161 1.860 1.580  2.140 1.000 1.00000 1.850 1.000      3.454  23.000
  162 1.850 1.571  2.129 1.000 1.00000 1.850 1.000      2.308  23.000
  163 1.860 1.580  2.140 1.000 1.00000 1.850 1.000      5.108  23.000
  164 1.860 1.580  2.140 1.000 1.00000 1.850 1.000      4.541  23.000
  165 1.860 1.580  2.140 1.000 1.00000 1.850 1.000      3.891  23.000
  166 1.870 1.589  2.151 1.000 1.00000 1.880 1.000      9.423  23.000
  167 1.850 1.571  2.129 1.000 1.00000 1.850 1.000      2.892  23.000
  168 1.860 1.580  2.140 1.000 1.00000 1.850 1.000      2.884  23.000
  169 1.860 1.580  2.140 1.000 1.00000 1.850 1.000      2.379  23.000
  170 1.850 1.571  2.129 1.000 1.00000 1.850 1.000      2.575  23.000
  171 1.850 1.571  2.129 1.000 1.00000 1.850 1.000      2.458  23.000
  172 1.860 1.580  2.140 1.000 1.00000 1.860 1.000      6.142  23.000
  173 1.850 1.571  2.129 1.000 1.00000 1.850 1.000      2.343  23.000
  174 1.860 1.580  2.140 1.000 1.00000 1.850 1.000      3.238  23.000
  175 1.850 1.571  2.129 1.000 1.00000 1.850 1.000      2.295  23.000
  176 1.880 1.598  2.162 1.000 1.00000 1.880 1.000     10.796  23.000
  177 1.870 1.589  2.151 1.000 1.00000 1.880 1.000      7.787  23.000
  178 1.870 1.589  2.151 1.000 1.00000 1.880 1.000      7.622  23.000
  179 1.860 1.580  2.140 1.000 1.00000 1.850 1.000      2.743  23.000
  180 1.860 1.580  2.140 1.000 1.00000 1.850 1.000      3.507  23.000
  181 1.850 1.571  2.129 1.000 1.00000 1.850 1.000      2.311  23.000
  182 1.860 1.580  2.140 1.000 1.00000 1.850 1.000      2.630  23.000
  183 1.880 1.598  2.162 1.000 1.00000 1.880 1.000     10.840  23.000
  184 1.860 1.580  2.140 1.000 1.00000 1.850 1.000      2.304  23.000
  185 1.870 1.589  2.151 1.000 1.00000 1.880 1.000      7.116  23.000
  186 1.850 1.571  2.129 1.000 1.00000 1.850 1.000      2.479  23.000
  187 1.870 1.589  2.151 1.000 1.00000 1.860 1.000      6.927  23.000
  188 1.860 1.580  2.140 1.000 1.00000 1.860 1.000      5.633  23.000
  189 1.860 1.580  2.140 1.000 1.00000 1.850 1.000      2.294  23.000
  190 1.860 1.580  2.140 1.000 1.00000 1.850 1.000      3.368  23.000
  191 1.860 1.580  2.140 1.000 1.00000 1.850 1.000      2.395  23.000
  192 1.860 1.580  2.140 1.000 1.00000 1.850 1.000      3.043  23.000
  193 1.880 1.598  2.162 1.000 1.00000 1.880 1.000     13.464  23.000
  194 1.860 1.580  2.140 1.000 1.00000 1.850 1.000      2.479  23.000
  195 1.850 1.571  2.129 1.000 1.00000 1.850 1.000      2.276  23.000
  196 1.870 1.589  2.151 1.000 1.00000 1.880 1.000      7.239  23.000
  197 1.850 1.571  2.129 1.000 1.00000 1.850 1.000      2.386  23.000
  198 1.850 1.571  2.129 1.000 1.00000 1.850 1.000      2.629  23.000
  199 1.860 1.580  2.140 1.000 1.00000 1.850 1.000      2.277  23.000
  200 1.870 1.589  2.151 1.000 1.00000 1.860 1.000      6.893  23.000
  201 1.850 1.571  2.129 1.000 1.00000 1.850 1.000      2.314  23.000
  202 1.860 1.580  2.140 1.000 1.00000 1.860 1.000      6.395  23.000
  203 1.850 1.571  2.129 1.000 1.00000 1.850 1.000      2.361  23.000
  204 1.880 1.598  2.162 1.000 1.00000 1.880 1.000     11.607  23.000
  205 1.850 1.571  2.129 1.000 1.00000 1.850 1.000      2.361  23.000
  206 1.860 1.580  2.140 1.000 1.00000 1.850 1.000      3.043  23.000
  207 1.860 1.580  2.140 1.000 1.00000 1.850 1.000      3.160  23.000
  208 1.850 1.571  2.129 1.000 1.00000 1.850 1.000      2.525  23.000
  209 1.860 1.580  2.140 1.000 1.00000 1.860 1.000      5.519  23.000
  210 1.850 1.571  2.129 1.000 1.00000 1.850 1.000      2.284  23.000
  211 1.860 1.580  2.140 1.000 1.00000 1.850 1.000      3.770  23.000
  212 1.860 1.580  2.140 1.000 1.00000 1.850 1.000      2.859  23.000
  213 1.860 1.580  2.140 1.000 1.00000 1.850 1.000      2.299  23.000
  214 1.860 1.580  2.140 1.000 1.00000 1.850 1.000      3.617  23.000
  215 1.860 1.580  2.140 1.000 1.00000 1.850 1.000      2.280  23.000
  216 1.860 1.580  2.140 1.000 1.00000 1.850 1.000      3.871  23.000
  217 1.860 1.580  2.140 1.000 1.00000 1.850 1.000      2.935  23.000
  218 1.860 1.580  2.140 1.000 1.00000 1.850 1.000      2.811  23.000
  219 1.850 1.571  2.129 1.000 1.00000 1.850 1.000      2.451  23.000
  220 1.860 1.580  2.140 1.000 1.00000 1.850 1.000      2.290  23.000
  221 1.860 1.580  2.140 1.000 1.00000 1.850 1.000      2.342  23.000
  222 1.860 1.580  2.140 1.000 1.00000 1.850 1.000      2.859  23.000
  223 1.870 1.589  2.151 1.000 1.00000 1.880 1.000      9.150  23.000
  224 1.860 1.580  2.140 1.000 1.00000 1.850 1.000      3.002  23.000
  225 1.860 1.580  2.140 1.000 1.00000 1.850 1.000      2.961  23.000
  226 1.860 1.580  2.140 1.000 1.00000 1.850 1.000      2.516  23.000
  227 1.850 1.571  2.129 1.000 1.00000 1.850 1.000      3.023  23.000
  228 1.850 1.571  2.129 1.000 1.00000 1.850 1.000      2.275  23.000
  229 1.850 1.571  2.129 1.000 1.00000 1.850 1.000      2.486  23.000
  230 1.850 1.571  2.129 1.000 1.00000 1.850 1.000      2.278  23.000
  231 1.860 1.580  2.140 1.000 1.00000 1.850 1.000      4.715  23.000
  232 1.860 1.580  2.140 1.000 1.00000 1.850 1.000      2.299  23.000
  233 1.890 1.607  2.173 1.000 1.00000 1.890 1.000     30.591  23.000
  234 1.850 1.571  2.129 1.000 1.00000 1.850 1.000      2.370  23.000
  235 1.850 1.571  2.129 1.000 1.00000 1.850 1.000      2.314  23.000
  236 1.860 1.580  2.140 1.000 1.00000 1.850 1.000      2.338  23.000
  237 1.880 1.598  2.162 1.000 1.00000 1.880 1.000     10.449  23.000
  238 1.880 1.598  2.162 1.000 1.00000 1.880 1.000     13.827  23.000
  239 1.850 1.571  2.129 1.000 1.00000 1.850 1.000      2.763  23.000
  240 1.860 1.580  2.140 1.000 1.00000 1.850 1.000      4.921  23.000
  241 1.850 1.571  2.129 1.000 1.00000 1.850 1.000      2.557  23.000
  242 1.880 1.598  2.162 1.000 1.00000 1.880 1.000     10.622  23.000
  243 1.850 1.571  2.129 1.000 1.00000 1.850 1.000      2.465  23.000
  244 1.890 1.607  2.173 1.000 1.00000 1.890 1.000     58.275  23.000
  245 1.860 1.580  2.140 1.000 1.00000 1.850 1.000      5.108  23.000
  246 1.860 1.580  2.140 1.000 1.00000 1.850 1.000      2.283  23.000
  247 1.850 1.571  2.129 1.000 1.00000 1.850 1.000      2.509  23.000
  248 1.850 1.571  2.129 1.000 1.00000 1.850 1.000      2.525  23.000
  249 1.860 1.580  2.140 1.000 1.00000 1.850 1.000      2.611  23.000
  250 1.860 1.580  2.140 1.000 1.00000 1.850 1.000      3.043  23.000
  251 1.860 1.580  2.140 1.000 1.00000 1.850 1.000      2.330  23.000
  252 1.850 1.571  2.129 1.000 1.00000 1.850 1.000      2.276  23.000
  253 1.850 1.571  2.129 1.000 1.00000 1.850 1.000      2.370  23.000
  254 1.850 1.571  2.129 1.000 1.00000 1.850 1.000      2.774  23.000
  255 1.850 1.571  2.129 1.000 1.00000 1.850 1.000      2.276  23.000
  256 1.850 1.571  2.129 1.000 1.00000 1.850 1.000      2.361  23.000
  257 1.860 1.580  2.140 1.000 1.00000 1.850 1.000      2.407  23.000
  258 1.860 1.580  2.140 1.000 1.00000 1.850 1.000      3.222  23.000
  259 1.850 1.571  2.129 1.000 1.00000 1.850 1.000      2.391  23.000
  260 1.850 1.571  2.129 1.000 1.00000 1.850 1.000      2.287  23.000
  261 1.850 1.571  2.129 1.000 1.00000 1.850 1.000      2.278  23.000
  262 1.850 1.571  2.129 1.000 1.00000 1.850 1.000      2.855  23.000
  263 1.870 1.589  2.151 1.000 1.00000 1.880 1.000      7.557  23.000
  264 1.860 1.580  2.140 1.000 1.00000 1.850 1.000      3.101  23.000
  265 1.860 1.580  2.140 1.000 1.00000 1.850 1.000      2.721  23.000
  266 1.870 1.589  2.151 1.000 1.00000 1.880 1.000      8.058  23.000
  267 1.860 1.580  2.140 1.000 1.00000 1.850 1.000      3.254  23.000
  268 1.860 1.580  2.140 1.000 1.00000 1.850 1.000      4.715  23.000
  269 1.850 1.571  2.129 1.000 1.00000 1.850 1.000      2.317  23.000
